	1222 s
A	erg/s/cm2/A
1003.6	4.66099E-14
1007	2.23173E-13
1008.2	3.56591E-13
1011.8	3.89958E-13
1013	8.77577E-14
1015.4	2.34447E-13
1016.6	4.11829E-13
1017.6	1.26764E-13
1018.8	1.08471E-13
1023.6	6.74452E-14
1024.8	1.47411E-14
1026	1.15761E-13
1027.2	1.03443E-13
1029.4	3.77355E-14
1030.6	1.64386E-13
1035.4	1.85941E-13
1036.6	9.66013E-14
1044.8	1.16175E-13
1046	3.75544E-14
1048.4	7.37876E-14
1050.8	3.1966E-13
1052	3.05302E-13
1053	7.10497E-14
1056.6	3.7964E-13
1057.8	2.62706E-13
1063.8	2.87169E-15
1069.6	1.16841E-13
1072	2.26575E-14
1076.6	8.32194E-15
1079	4.28648E-14
1080.2	7.14304E-14
1083.8	7.45262E-14
1086.2	3.5937E-14
1088.4	8.17351E-14
1089.6	3.23753E-13
1094.4	4.81297E-14
1095.6	1.58119E-13
1098	3.17349E-14
1099.2	7.29388E-14
1103.8	1.65621E-13
1105	2.82256E-14
1106.2	2.27746E-14
1108.6	6.49215E-14
1112	8.25671E-14
1113.2	1.01257E-13
1114.4	5.8762E-15
1115.6	1.81822E-13
1116.8	2.27186E-13
1118	1.80438E-13
1119.2	1.92035E-13
1120.4	2.17298E-13
1121.6	5.69589E-14
1122.6	7.78855E-14
1125	5.21272E-14
1129.8	3.15185E-14
1132.2	2.71124E-14
1133.4	1.34289E-14
1134.4	2.61398E-13
1135.6	9.49924E-14
1136.8	2.07422E-13
1138	9.09847E-14
1139.2	1.99116E-13
1140.4	1.98611E-13
1141.6	4.63893E-13
1142.8	2.72203E-13
1144	4.12906E-13
1145.2	4.49767E-13
1146.2	6.97516E-13
1147.4	5.76986E-13
1148.6	8.67288E-13
1149.8	8.69733E-13
1151	2.29617E-13
1152.2	2.47958E-13
1153.4	2.53192E-13
1154.6	2.39708E-13
1155.8	2.41727E-13
1157	3.18975E-13
1158	3.63059E-13
1159.2	3.28886E-13
1160.4	4.6888E-13
1161.6	6.88634E-13
1162.8	4.7952E-13
1164	3.3477E-13
1165.2	3.0762E-13
1166.4	3.461E-13
1167.6	3.18089E-13
1168.8	3.43724E-13
1169.8	3.48984E-13
1171	4.59973E-13
1172.2	7.54974E-13
1173.4	1.09419E-12
1174.6	1.21982E-12
1175.8	1.22822E-12
1177	9.16709E-13
1178.2	6.17735E-13
1179.4	4.56043E-13
1180.6	3.69992E-13
1181.6	3.22796E-13
1182.8	2.93457E-13
1184	3.18713E-13
1185.2	2.95549E-13
1186.4	2.74509E-13
1187.6	3.25289E-13
1188.8	3.13874E-13
1190	2.97844E-13
1191.2	3.14272E-13
1192.4	3.14272E-13
1193.4	3.14272E-13
1194.6	3.14272E-13
1195.8	3.14272E-13
1197	3.14272E-13
1198.2	3.14272E-13
1199.4	3.14272E-13
1200.91	3.14272E-13
1202.61	3.14272E-13
1204.41	3.13306E-13
1206.11	1.83697E-12
1207.91	3.13306E-13
1209.61	3.13306E-13
1211.41	3.13306E-13
1213.11	8.06045E-13
1214.91	1.01282E-11
1216.61	1.12208E-11
1218.41	1.30759E-12
1220.11	3.14272E-13
1221.91	3.14272E-13
1223.61	3.14272E-13
1225.41	3.14272E-13
1227.11	3.14272E-13
1228.91	3.14272E-13
1231.2	3.27594E-13
1232.4	3.35547E-13
1233.6	3.42425E-13
1234.8	3.32113E-13
1236	3.92938E-13
1237.2	4.33565E-13
1238.4	4.0467E-13
1239.4	4.18507E-13
1240.6	4.27723E-13
1241.8	4.183E-13
1243	3.84321E-13
1244.2	4.05499E-13
1245.4	4.15243E-13
1246.6	4.20898E-13
1247.8	4.35214E-13
1249	3.85618E-13
1250.2	3.69153E-13
1251.2	3.56152E-13
1252.4	3.41446E-13
1253.6	3.39846E-13
1254.8	3.30894E-13
1256	3.79965E-13
1257.2	3.52805E-13
1258.4	3.21715E-13
1259.6	3.24602E-13
1260.8	3.47363E-13
1262	3.98456E-13
1263	3.79329E-13
1264.2	3.77159E-13
1265.4	3.51954E-13
1266.6	3.63228E-13
1267.8	3.95556E-13
1269	3.79725E-13
1270.2	3.68621E-13
1271.4	3.44686E-13
1272.6	3.48996E-13
1273.8	3.94526E-13
1274.8	3.85445E-13
1276	3.49308E-13
1277.2	3.68878E-13
1278.4	3.51475E-13
1279.6	3.94929E-13
1280.8	3.51221E-13
1282	3.7363E-13
1283.2	3.68007E-13
1284.4	3.65542E-13
1285.6	3.91051E-13
1286.6	3.95641E-13
1287.8	4.25221E-13
1289	3.90225E-13
1290.2	4.58406E-13
1291.4	4.01212E-13
1292.6	4.17662E-13
1293.8	4.44304E-13
1295	4.86301E-13
1296.2	5.3138E-13
1297.4	5.7197E-13
1298.4	5.50856E-13
1299.6	4.88344E-13
1300.8	5.2032E-13
1302	5.16592E-13
1303.2	5.44507E-13
1304.4	4.65271E-13
1305.6	4.13637E-13
1306.8	4.22889E-13
1308	3.953E-13
1309.2	3.50612E-13
1310.2	4.01038E-13
1311.4	4.46802E-13
1312.6	3.95069E-13
1313.8	3.90459E-13
1315	3.82657E-13
1316.2	3.88298E-13
1317.4	3.85387E-13
1318.6	3.49993E-13
1319.8	3.97115E-13
1320.8	3.56544E-13
1322	3.66978E-13
1323.2	3.94692E-13
1324.4	4.00605E-13
1325.6	3.98892E-13
1326.8	3.94358E-13
1328	3.52563E-13
1329.2	4.05539E-13
1330.4	4.01494E-13
1331.6	4.31986E-13
1332.6	5.74488E-13
1333.8	6.68476E-13
1335	7.3037E-13
1336.2	7.22994E-13
1337.4	6.55972E-13
1338.6	5.18309E-13
1339.8	4.18578E-13
1341	3.41183E-13
1342.2	3.91441E-13
1343.4	4.06328E-13
1344.4	3.68769E-13
1345.6	3.94864E-13
1346.8	3.60681E-13
1348	3.82431E-13
1349.2	3.51213E-13
1350.4	3.23648E-13
1351.6	3.50666E-13
1352.8	3.59856E-13
1354	3.81042E-13
1355.2	4.05178E-13
1356.2	3.80503E-13
1357.4	3.47492E-13
1358.6	3.46851E-13
1359.8	3.53877E-13
1361	3.59346E-13
1362.2	3.47793E-13
1363.4	3.67462E-13
1364.6	3.8736E-13
1365.8	3.95996E-13
1367	3.80012E-13
1368	3.61931E-13
1369.2	3.7264E-13
1370.4	3.4221E-13
1371.6	3.64755E-13
1372.8	4.20148E-13
1374	3.79424E-13
1375.2	3.50777E-13
1376.4	3.22275E-13
1377.6	3.6502E-13
1378.8	3.73984E-13
1379.8	3.36706E-13
1381	3.66836E-13
1382.2	3.97131E-13
1383.4	3.36514E-13
1384.6	3.47205E-13
1385.8	3.59711E-13
1387	3.58671E-13
1388.2	3.96443E-13
1389.4	4.32395E-13
1390.6	5.1405E-13
1391.6	6.67227E-13
1392.8	8.24581E-13
1394	8.47134E-13
1395.2	7.62457E-13
1396.4	5.81246E-13
1397.6	4.68265E-13
1398.8	4.84858E-13
1400	5.48266E-13
1401.2	6.63333E-13
1402.4	6.67104E-13
1403.4	6.50174E-13
1404.6	6.32305E-13
1405.8	4.77632E-13
1407	4.04162E-13
1408.2	3.76377E-13
1409.4	4.08239E-13
1410.6	3.49755E-13
1411.8	3.38657E-13
1413	3.68548E-13
1414	3.77266E-13
1415.2	3.74667E-13
1416.4	3.90547E-13
1417.6	3.86783E-13
1418.8	3.85561E-13
1420	3.55497E-13
1421.2	3.50796E-13
1422.4	3.88919E-13
1423.6	3.71563E-13
1424.8	3.76807E-13
1425.8	3.69731E-13
1427	3.48506E-13
1428.2	3.58392E-13
1429.4	3.64652E-13
1430.6	3.79064E-13
1431.8	3.66122E-13
1433	4.01525E-13
1434.2	3.59443E-13
1435.4	3.45158E-13
1436.6	3.5211E-13
1437.6	3.52008E-13
1438.8	3.49898E-13
1440	3.52412E-13
1441.2	3.38432E-13
1442.4	3.54375E-13
1443.6	3.65628E-13
1444.8	3.81018E-13
1446	3.68858E-13
1447.2	3.70868E-13
1448.4	3.65886E-13
1449.4	3.68526E-13
1450.6	4.00466E-13
1451.8	3.73246E-13
1453	3.4514E-13
1454.2	3.46016E-13
1455.4	3.71661E-13
1456.6	3.7209E-13
1457.8	3.9884E-13
1459	3.81787E-13
1460.2	3.66986E-13
1461.2	3.72716E-13
1462.4	3.83476E-13
1463.6	3.57046E-13
1464.8	3.71671E-13
1466	4.02013E-13
1467.2	3.85596E-13
1468.4	3.98507E-13
1469.6	4.17186E-13
1470.8	4.00847E-13
1472	3.74687E-13
1473	3.85985E-13
1474.2	4.0609E-13
1475.4	3.9131E-13
1476.6	4.0034E-13
1477.8	4.03845E-13
1479	3.77985E-13
1480.2	3.95688E-13
1481.4	4.20271E-13
1482.6	3.83866E-13
1483.8	3.93378E-13
1484.8	4.2185E-13
1486	4.0958E-13
1487.2	4.40838E-13
1488.4	4.09937E-13
1489.6	4.27271E-13
1490.8	3.94265E-13
1492	3.9844E-13
1493.2	4.03544E-13
1494.4	4.24281E-13
1495.6	4.23432E-13
1496.6	4.1537E-13
1497.8	4.24055E-13
1499	4.26502E-13
1500.2	4.36602E-13
1501.4	4.36123E-13
1502.6	4.38621E-13
1503.8	3.93307E-13
1505	3.98614E-13
1506.2	3.88273E-13
1507.4	3.94745E-13
1508.4	3.83539E-13
1509.6	3.75539E-13
1510.8	3.92065E-13
1512	4.054E-13
1513.2	3.75499E-13
1514.4	3.44457E-13
1515.6	3.47468E-13
1516.8	3.44611E-13
1518	3.78936E-13
1519	4.21426E-13
1520.2	3.97254E-13
1521.4	3.89181E-13
1522.6	3.9953E-13
1523.8	4.10742E-13
1525	4.52061E-13
1526.2	4.08231E-13
1527.4	3.85673E-13
1528.6	4.26054E-13
1529.8	4.50867E-13
1530.8	4.23813E-13
1532	4.12645E-13
1533.2	4.03699E-13
1534.4	4.2691E-13
1535.6	3.9585E-13
1536.8	3.9585E-13
1538	3.9585E-13
1539.2	3.9585E-13
1540.4	3.9585E-13
1541.6	3.9585E-13
1542.6	3.9585E-13
1543.8	3.9585E-13
1545	3.9585E-13
1546.2	4.38684E-13
1547.4	5.18E-13
1548.6	5.51911E-13
1549.8	5.51431E-13
1551	5.17048E-13
1552.2	4.79405E-13
1553.4	3.96567E-13
1554.4	3.9585E-13
1555.6	3.9585E-13
1556.8	3.9585E-13
1558	3.9585E-13
1559.2	3.9585E-13
1560.4	3.9585E-13
1561.6	3.9585E-13
1562.8	3.9585E-13
1564	3.9585E-13
1565.2	4.34469E-13
1566.2	4.41976E-13
1567.4	4.364E-13
1568.6	4.1861E-13
1569.8	4.20605E-13
1571	4.11103E-13
1572.2	3.78864E-13
1573.4	4.04131E-13
1574.6	3.92618E-13
1575.8	4.12661E-13
1577	4.24582E-13
1578	4.42039E-13
1579.2	4.31173E-13
1580.4	4.55261E-13
1581.6	4.32629E-13
1582.8	4.14608E-13
1584	4.15302E-13
1585.2	4.18891E-13
1586.4	4.27965E-13
1587.6	4.01573E-13
1588.8	4.11003E-13
1589.8	4.04857E-13
1591	4.02644E-13
1592.2	4.05031E-13
1593.4	4.03655E-13
1594.6	4.23833E-13
1595.8	4.25463E-13
1597	4.11808E-13
1598.2	3.91101E-13
1599.4	4.03393E-13
1600.6	4.06074E-13
1601.6	3.78954E-13
1602.8	4.14505E-13
1604	4.14101E-13
1605.2	3.94413E-13
1606.4	3.84414E-13
1607.6	4.0099E-13
1608.8	4.39823E-13
1610	4.05808E-13
1611.2	3.86951E-13
1612.4	3.76758E-13
1613.4	3.85671E-13
1614.6	4.12744E-13
1615.8	3.95723E-13
1617	3.61532E-13
1618.2	3.68086E-13
1619.4	4.02509E-13
1620.6	4.2528E-13
1621.8	4.14485E-13
1623	3.95968E-13
1624	4.02493E-13
1625.2	3.90534E-13
1626.4	3.8684E-13
1627.6	3.97968E-13
1628.8	3.7472E-13
1630	3.80789E-13
1631.2	3.95773E-13
1632.4	4.02291E-13
1633.6	4.14537E-13
1634.8	4.38189E-13
1635.8	4.45827E-13
1637	4.45426E-13
1638.2	5.36099E-13
1639.4	5.60441E-13
1640.6	5.86092E-13
1641.8	5.81131E-13
1643	5.17433E-13
1644.2	4.56451E-13
1645.4	4.07672E-13
1646.6	4.012E-13
1647.6	4.01989E-13
1648.8	4.09191E-13
1650	3.61309E-13
1651.2	3.66828E-13
1652.4	4.1067E-13
1653.6	3.96588E-13
1654.8	4.10008E-13
1656	4.39145E-13
1657.2	4.61567E-13
1658.4	4.63237E-13
1659.4	4.4871E-13
1660.6	4.25923E-13
1661.8	4.18923E-13
1663	4.16686E-13
1664.2	4.00221E-13
1665.4	4.12491E-13
1666.6	4.06038E-13
1667.8	3.92219E-13
1669	3.92234E-13
1670.2	3.70673E-13
1671.2	3.82246E-13
1672.4	4.00161E-13
1673.6	4.05646E-13
1674.8	4.10674E-13
1676	3.95986E-13
1677.2	3.95568E-13
1678.4	4.01549E-13
1679.6	3.69931E-13
1680.8	3.78745E-13
1682	3.95042E-13
1683	3.91399E-13
1684.2	3.8404E-13
1685.4	3.7321E-13
1686.6	3.60172E-13
1687.8	3.84511E-13
1689	4.02616E-13
1690.2	3.87047E-13
1691.4	3.93134E-13
1692.6	4.04309E-13
1693.8	4.11202E-13
1694.8	4.30229E-13
1696	4.07196E-13
1697.2	3.82604E-13
1698.4	3.95881E-13
1699.6	4.07121E-13
1700.8	3.97211E-13
1702	4.04535E-13
1703.2	3.78187E-13
1704.4	3.76426E-13
1705.6	3.87611E-13
1706.6	3.88502E-13
1707.8	3.86875E-13
1709	3.67494E-13
1710.2	3.72248E-13
1711.4	3.9418E-13
1712.6	4.02846E-13
1713.8	3.95592E-13
1715	4.04936E-13
1716.2	4.07518E-13
1717.4	3.92055E-13
1718.4	4.1144E-13
1719.6	4.30348E-13
1720.8	4.16825E-13
1722	3.98626E-13
1723.2	3.79574E-13
1724.4	3.82379E-13
1725.6	4.00272E-13
1726.8	3.94316E-13
1728	3.92838E-13
1729	3.99653E-13
1730.2	3.88802E-13
1731.4	3.89867E-13
1732.6	3.76075E-13
1733.8	3.73254E-13
1735	3.83204E-13
1736.2	4.02525E-13
1737.4	4.02913E-13
1738.6	3.9485E-13
1739.8	4.04983E-13
1740.8	3.97607E-13
1742	3.83044E-13
1743.2	3.81952E-13
1744.4	3.9018E-13
1745.6	3.94948E-13
1746.8	4.11844E-13
1748	4.25744E-13
1749.2	4.14132E-13
1750.4	4.11019E-13
1751.6	4.11805E-13
1752.6	4.00546E-13
1753.8	4.14303E-13
1755	4.21029E-13
1756.2	4.16068E-13
1757.4	4.21537E-13
1758.6	4.18598E-13
1759.8	3.96917E-13
1761	3.83271E-13
1762.2	4.09373E-13
1763.4	4.24317E-13
1764.4	4.17761E-13
1765.6	4.02802E-13
1766.8	4.15556E-13
1768	4.18503E-13
1769.2	4.09655E-13
1770.4	4.06994E-13
1771.6	3.99776E-13
1772.8	4.07117E-13
1774	4.16099E-13
1775.2	4.20367E-13
1776.2	4.22175E-13
1777.4	4.17265E-13
1778.6	4.08699E-13
1779.8	4.07708E-13
1781	3.97393E-13
1782.2	4.09901E-13
1783.4	4.12673E-13
1784.6	4.20815E-13
1785.8	4.22405E-13
1787	4.17686E-13
1788	3.94512E-13
1789.2	3.74679E-13
1790.4	3.37025E-13
1791.6	2.86333E-13
1792.8	2.66735E-13
1794	2.96253E-13
1795.2	3.34443E-13
1796.4	3.62757E-13
1797.6	3.8475E-13
1798.8	3.97663E-13
1799.8	3.96866E-13
1801	4.08961E-13
1802.2	4.1044E-13
1803.4	4.08545E-13
1804.6	4.01085E-13
1805.8	4.15171E-13
1807	4.18015E-13
1808.2	4.24241E-13
1809.4	4.1834E-13
1810.6	4.15203E-13
1811.6	4.02259E-13
1812.8	3.95977E-13
1814	3.97468E-13
1815.2	4.06169E-13
1816.4	4.07708E-13
1817.6	4.25482E-13
1818.8	4.17051E-13
1820	4.09167E-13
1821.2	3.96933E-13
1822.4	3.96133E-13
1823.4	3.98555E-13
1824.6	4.0494E-13
1825.8	4.07343E-13
1827	4.1232E-13
1828.2	4.10555E-13
1829.4	4.01014E-13
1830.6	3.8865E-13
1831.8	3.87547E-13
1833	3.77866E-13
1834	3.75631E-13
1835.2	3.77686E-13
1836.4	3.84195E-13
1837.6	3.83428E-13
1838.8	3.84394E-13
1840	3.87252E-13
1841.2	3.82096E-13
1842.4	3.89137E-13
1843.6	3.92337E-13
1844.8	3.83012E-13
1845.8	3.84448E-13
1847	3.87186E-13
1848.2	3.92776E-13
1849.4	3.86451E-13
1850.6	3.98293E-13
1851.8	4.04587E-13
1853	4.11475E-13
1854.2	4.09667E-13
1855.4	4.09576E-13
1856.6	4.06161E-13
1857.6	4.12602E-13
1858.8	4.15179E-13
1860	4.14319E-13
1861.2	4.09921E-13
1862.4	4.14517E-13
1863.6	4.03683E-13
1864.8	4.07129E-13
1866	3.97369E-13
1867.2	3.85736E-13
1868.4	3.71472E-13
1869.4	3.83383E-13
1870.6	3.79754E-13
1871.8	3.89791E-13
1873	3.88152E-13
1874.2	3.87883E-13
1875.4	3.8184E-13
1876.6	3.84192E-13
1877.8	3.74706E-13
1879	3.74183E-13
1880.2	3.74487E-13
1881.2	3.85559E-13
1882.4	3.83148E-13
1883.6	3.88884E-13
1884.8	3.78613E-13
1886	3.81823E-13
1887.2	3.77928E-13
1888.4	3.86487E-13
1889.6	3.79801E-13
1890.8	3.86824E-13
1892	3.89129E-13
1893	3.95731E-13
1894.2	3.92061E-13
1895.4	3.93474E-13
1896.6	3.92207E-13
1897.8	3.9046E-13
1899	3.84328E-13
1900.2	3.87199E-13
1901.4	3.83632E-13
1902.6	3.81592E-13
1903.8	3.72346E-13
1904.8	3.722E-13
1906	3.70275E-13
1907.2	3.81131E-13
1908.4	3.82386E-13
1909.6	3.8628E-13
1910.8	3.81564E-13
1912	3.84182E-13
1913.2	3.85255E-13
1914.4	3.88139E-13
1915.6	3.8719E-13
1916.6	3.93341E-13
1917.8	3.84863E-13
1919	3.815E-13
1920.2	3.73354E-13
1921.4	3.74952E-13
1922.6	3.8275E-13
1923.8	3.85792E-13
1925	3.80385E-13
1926.2	3.86719E-13
1927.4	3.9614E-13
1928.4	3.97817E-13
1929.6	3.98646E-13
1930.8	3.94581E-13
1932	3.88089E-13
1933.2	3.89015E-13
1934.4	3.78047E-13
1935.6	3.81812E-13
1936.8	3.72837E-13
1938	3.75292E-13
1939	3.72352E-13
1940.2	3.78748E-13
1941.4	3.75493E-13
1942.6	3.74714E-13
1943.8	3.72262E-13
1945	3.68216E-13
1946.2	3.69337E-13
1947.4	3.68597E-13
1948.6	3.70593E-13
1949.8	3.71046E-13
1950.8	3.72768E-13
1952	3.79372E-13
1953.2	3.8088E-13
1954.4	3.86752E-13
1955.6	3.87756E-13
1956.8	3.90029E-13
1958	3.82045E-13
1959.2	3.84021E-13
1960.4	3.84894E-13
1961.6	3.84047E-13
1962.6	3.82765E-13
1963.8	3.84004E-13
1965	3.82287E-13
1966.2	3.74376E-13
1967.4	3.67586E-13
1968.6	3.6426E-13
1969.8	3.67513E-13
1971	3.67048E-13
1972.2	3.61381E-13
1973.4	3.62477E-13
1974.4	3.63429E-13
1975.6	3.68897E-13
1976.8	3.70496E-13
1978	3.74399E-13
1979.2	3.72987E-13
1980.4	3.74408E-13
1981.6	3.76045E-13
1982.8	3.8506E-13
2000.4	3.62453E-13
2002.2	3.61991E-13
2004.2	3.56305E-13
2006	3.56685E-13
2009.8	3.55651E-13
2011.6	3.40179E-13
2013.6	3.34964E-13
2015.4	3.4178E-13
2017.2	3.43307E-13
2019.2	3.5155E-13
2021	3.49736E-13
2022.8	3.36992E-13
2024.8	3.3143E-13
2026.6	3.31041E-13
2028.4	3.46962E-13
2030.4	3.3461E-13
2032.2	3.25619E-13
2034	3.32503E-13
2036	3.38991E-13
2037.8	3.49086E-13
2039.6	3.63153E-13
2041.6	3.60862E-13
2043.4	3.57921E-13
2045.4	3.71385E-13
2047.2	3.71129E-13
2049	3.68052E-13
2051	3.85978E-13
2052.8	3.92805E-13
2054.6	3.79592E-13
2056.6	3.71571E-13
2058.4	3.75097E-13
2060.2	3.88535E-13
2062.2	4.02893E-13
2064	4.02433E-13
2065.8	3.93062E-13
2067.8	3.81796E-13
2069.6	3.78899E-13
2071.4	3.70386E-13
2073.4	3.80018E-13
2075.2	3.79432E-13
2077	3.65864E-13
2079	3.52452E-13
2080.8	3.4732E-13
2082.6	3.54838E-13
2084.6	3.42882E-13
2086.4	3.2769E-13
2088.4	3.21379E-13
2090.2	3.06904E-13
2092	3.06671E-13
2094	3.34002E-13
2095.8	3.56516E-13
2097.6	3.51075E-13
2099.6	3.42223E-13
2101.4	3.43055E-13
2103.2	3.51215E-13
2105.2	3.74253E-13
2107	3.87331E-13
2108.8	4.05213E-13
2110.8	4.24301E-13
2112.6	4.35365E-13
2114.4	4.28699E-13
2116.4	4.35115E-13
2118.2	4.48627E-13
2120	4.64331E-13
2122	4.65541E-13
2123.8	4.67305E-13
2125.6	4.86083E-13
2127.6	4.87824E-13
2129.4	4.94158E-13
2131.4	5.01911E-13
2133.2	4.85659E-13
2135	4.72477E-13
2137	4.7235E-13
2138.8	4.70605E-13
2140.6	4.76236E-13
2142.6	4.72536E-13
2144.4	4.58125E-13
2146.2	4.5216E-13
2148.2	4.54944E-13
2150	4.52347E-13
2151.8	4.44625E-13
2153.8	4.37998E-13
2155.6	4.40041E-13
2157.4	4.56685E-13
2159.4	4.73135E-13
2161.2	4.6451E-13
2163	4.55959E-13
2165	4.50098E-13
2166.8	4.57121E-13
2168.6	4.59041E-13
2170.6	4.61067E-13
2172.4	4.65021E-13
2174.4	4.55234E-13
2176.2	4.49063E-13
2178	4.46354E-13
2180	4.39652E-13
2181.8	4.40552E-13
2183.6	4.36238E-13
2185.6	4.36416E-13
2187.4	4.31272E-13
2189.2	4.27049E-13
2191.2	4.21834E-13
2193	4.25764E-13
2194.8	4.19443E-13
2196.8	4.05606E-13
2198.6	3.83479E-13
2200.4	3.94139E-13
2202.4	4.67611E-13
2204.2	3.02783E-13
2206	7.85288E-13
2208	7.44615E-13
2209.8	3.10916E-13
2211.8	5.37642E-13
2213.6	6.70614E-13
2215.4	3.54564E-13
2217.4	2.71228E-13
2219.2	5.105E-13
2221	6.32539E-13
2223	4.6861E-13
2224.8	5.40374E-13
2226.6	5.0456E-13
2228.6	4.64628E-13
2230.4	6.6695E-13
2232.2	4.09564E-13
2234.2	6.33495E-13
2236	7.67505E-13
2237.8	6.39273E-13
2239.8	4.17832E-13
2241.6	5.3853E-13
2243.4	5.83831E-13
2245.4	6.20415E-13
2247.2	5.90232E-13
2249	5.23556E-13
2251	7.43695E-13
2252.8	8.34555E-13
2254.8	9.93034E-13
2256.6	7.72958E-13
2258.4	6.92358E-13
2260.4	1.0896E-12
2262.2	1.03276E-12
2264	7.9155E-13
2266	6.75123E-13
2267.8	8.04704E-13
2269.6	8.96075E-13
2271.6	8.24212E-13
2273.4	5.24301E-13
2275.2	6.81397E-13
2277.2	9.40746E-13
2279	7.95393E-13
2280.8	7.2E-13
2282.8	8.0961E-13
2284.6	4.02338E-13
2286.4	5.97065E-13
2288.4	7.94231E-13
2290.2	5.37468E-13
2292	5.25943E-13
2294	7.3089E-13
2295.8	7.36255E-13
2297.8	7.16276E-13
2299.6	9.52877E-13
2301.4	1.04478E-12
2303.4	8.69457E-13
2305.2	6.34034E-13
2307	5.55353E-13
2309	4.52378E-13
2310.8	6.42644E-13
2312.6	5.05539E-13
2314.6	6.04739E-13
2316.4	7.04616E-13
2318.2	6.70329E-13
2320.2	8.52948E-13
2322	6.77582E-13
2323.8	6.14844E-13
2325.8	7.96039E-13
2327.6	1.05975E-12
2329.4	1.05337E-12
2331.4	1.02543E-12
2333.2	1.22334E-12
2335	1.03373E-12
2337	9.33774E-13
2338.8	1.26862E-12
2340.8	1.37163E-12
2342.6	1.33506E-12
2344.4	1.49558E-12
2346.4	1.49976E-12
2348.2	1.26838E-12
2350	1.36153E-12
2352	1.30875E-12
2353.8	9.00616E-13
2355.6	1.01309E-12
2357.6	1.10062E-12
2359.4	1.32545E-12
2361.2	1.61615E-12
2363.2	1.435E-12
2365	1.46048E-12
2366.8	1.4229E-12
2368.8	1.47827E-12
2370.6	1.32412E-12
2372.4	1.09071E-12
2374.4	1.00983E-12
2376.2	1.05946E-12
2378	1.51352E-12
2380	1.85301E-12
2381.8	2.06213E-12
2383.8	1.99634E-12
2385.6	1.95153E-12
2387.4	1.45624E-12
2389.4	1.23959E-12
2391.2	1.18322E-12
2393	1.44873E-12
2395	1.70741E-12
2396.8	1.58105E-12
2398.6	1.63787E-12
2400.6	1.65553E-12
2402.4	1.61854E-12
2404.2	1.70494E-12
2406.2	1.64358E-12
2408	1.83844E-12
2409.8	2.1633E-12
2411.8	1.7169E-12
2413.6	1.5608E-12
2415.4	1.29458E-12
2417.4	8.06025E-13
2419.2	8.49117E-13
2421	9.97357E-13
2423	1.0409E-12
2424.8	1.08288E-12
2426.8	1.17129E-12
2428.6	1.20821E-12
2430.4	1.28176E-12
2432.4	1.25204E-12
2434.2	1.1447E-12
2436	1.3554E-12
2438	1.25132E-12
2439.8	1.28098E-12
2441.6	1.17878E-12
2443.6	1.04774E-12
2445.4	1.22626E-12
2447.2	1.32755E-12
2449.2	1.32446E-12
2451	1.19513E-12
2452.8	1.13484E-12
2454.8	1.11038E-12
2456.6	1.20086E-12
2458.4	1.23589E-12
2460.4	1.2551E-12
2462.2	1.30194E-12
2464	1.29048E-12
2466	1.34105E-12
2467.8	1.42926E-12
2469.8	1.32861E-12
2471.6	1.36731E-12
2473.4	1.21185E-12
2475.4	1.32694E-12
2477.2	1.41654E-12
2479	1.52138E-12
2481	1.71231E-12
2482.8	1.4611E-12
2484.6	1.26189E-12
2486.6	1.35648E-12
2488.4	1.35387E-12
2490.2	1.32995E-12
2492.2	1.60892E-12
2494	1.37238E-12
2495.8	1.13836E-12
2497.8	1.23329E-12
2499.6	1.11114E-12
2501.4	1.13705E-12
2503.4	1.10025E-12
2505.2	1.40355E-12
2507.2	1.57856E-12
2509	1.4468E-12
2510.8	1.20597E-12
2512.8	1.28486E-12
2514.6	1.42601E-12
2516.4	1.4899E-12
2518.4	1.31794E-12
2520.2	1.4055E-12
2522	1.566E-12
2524	1.7322E-12
2525.8	1.9306E-12
2527.6	1.84116E-12
2529.6	2.00358E-12
2531.4	2.01933E-12
2533.2	1.77758E-12
2535.2	1.62595E-12
2537	1.94155E-12
2538.8	2.06317E-12
2540.8	1.92499E-12
2542.6	1.68084E-12
2544.4	1.6293E-12
2546.4	1.64601E-12
2548.2	1.74276E-12
2550.2	1.75959E-12
2552	1.59006E-12
2553.8	1.2374E-12
2555.8	1.14816E-12
2557.6	1.19409E-12
2559.4	1.23227E-12
2561.4	1.2939E-12
2563.2	1.19959E-12
2565	1.32095E-12
2567	1.28782E-12
2568.8	1.20427E-12
2570.6	1.32242E-12
2572.6	1.51299E-12
2574.4	1.41657E-12
2576.2	1.27005E-12
2578.2	1.19848E-12
2580	1.12084E-12
2581.8	1.25142E-12
2583.8	1.56018E-12
2585.6	1.69502E-12
2587.4	1.50057E-12
2589.4	1.33783E-12
2591.2	1.32401E-12
2593.2	1.39247E-12
2595	1.52036E-12
2596.8	1.65615E-12
2598.8	1.77451E-12
2600.6	1.80291E-12
2602.4	1.58188E-12
2604.4	1.62555E-12
2606.2	1.86517E-12
2608	1.93594E-12
2610	2.086E-12
2611.8	2.09477E-12
2613.6	1.82245E-12
2615.6	2.18687E-12
2617.4	1.82724E-12
2619.2	1.79858E-12
2621.2	1.83299E-12
2623	1.91601E-12
2624.8	1.93246E-12
2626.8	2.03972E-12
2628.6	2.13757E-12
2630.4	2.16038E-12
2632.4	2.05011E-12
2634.2	1.48744E-12
2636.2	1.13407E-12
2638	1.1022E-12
2639.8	1.11483E-12
2641.8	1.01705E-12
2643.6	1.04195E-12
2645.4	9.38894E-13
2647.4	9.09408E-13
2649.2	8.87676E-13
2651	9.32854E-13
2653	1.01043E-12
2654.8	1.07197E-12
2656.6	1.0631E-12
2658.6	1.02948E-12
2660.4	1.09583E-12
2662.2	1.28679E-12
2664.2	1.44788E-12
2666	1.30694E-12
2667.8	1.21771E-12
2669.8	1.24171E-12
2671.6	1.35548E-12
2673.4	1.20255E-12
2675.4	1.08449E-12
2677.2	1.12583E-12
2679.2	1.25662E-12
2681	1.31027E-12
2682.8	1.14789E-12
2684.8	1.13495E-12
2686.6	1.31543E-12
2688.4	1.31776E-12
2690.4	1.2627E-12
2692.2	1.31526E-12
2694	1.28328E-12
2696	1.28772E-12
2697.8	1.41679E-12
2699.6	1.27324E-12
2701.6	1.32339E-12
2703.4	1.44689E-12
2705.2	1.5213E-12
2707.2	1.43381E-12
2709	1.44592E-12
2710.8	1.44892E-12
2712.8	1.62679E-12
2714.6	1.58677E-12
2716.4	1.48044E-12
2718.4	1.41946E-12
2720.2	1.44235E-12
2722.2	1.55552E-12
2724	1.4779E-12
2725.8	1.57554E-12
2727.8	1.76486E-12
2729.6	1.77408E-12
2731.4	1.7471E-12
2733.4	1.80977E-12
2735.2	1.8661E-12
2737	2.11858E-12
2739	2.17865E-12
2740.8	2.11391E-12
2742.6	2.00201E-12
2744.6	2.15729E-12
2746.4	2.21653E-12
2748.2	2.13967E-12
2750.2	2.02507E-12
2752	2.12633E-12
2753.8	2.06526E-12
2755.8	1.95179E-12
2757.6	1.90226E-12
2759.4	1.87786E-12
2761.4	1.88272E-12
2763.2	1.8112E-12
2765.2	1.97546E-12
2767	1.77483E-12
2768.8	1.88708E-12
2770.8	1.66391E-12
2772.6	1.60904E-12
2774.4	1.60813E-12
2776.4	1.52814E-12
2778.2	1.57621E-12
2780	1.73055E-12
2782	1.73983E-12
2783.8	1.61475E-12
2785.6	1.62616E-12
2787.6	1.78663E-12
2789.4	1.9762E-12
2791.1	1.74872E-12
2791.2	1.74872E-12
2792.9	1.74872E-12
2793.2	1.74872E-12
2794.6	1.79633E-12
2795	1.79633E-12
2796.4	4.09088E-12
2796.8	1.79633E-12
2798.1	1.79633E-12
2798.8	1.79633E-12
2799.9	1.79633E-12
2800.6	1.79633E-12
2801.6	1.79633E-12
2802.4	1.79633E-12
2803.4	3.26851E-12
2804.4	1.79633E-12
2805.1	1.79633E-12
2806.2	1.74872E-12
2806.9	1.74872E-12
2808.2	1.74872E-12
2808.6	1.74872E-12
2810	1.53368E-12
2811.8	1.46985E-12
2813.8	1.40951E-12
2815.6	1.38045E-12
2817.4	1.27247E-12
2819.4	1.54305E-12
2821.2	1.54009E-12
2823	1.53183E-12
2825	1.51773E-12
2826.8	1.50982E-12
2828.6	1.50484E-12
2830.6	1.49415E-12
2832.4	1.44894E-12
2834.2	1.38924E-12
2836.2	1.34444E-12
2838	1.33706E-12
2839.8	1.35105E-12
2841.8	1.37435E-12
2843.6	1.39454E-12
2845.4	1.4062E-12
2847.4	1.40609E-12
2849.2	1.40401E-12
2851.2	1.40652E-12
2853	1.40645E-12
2854.8	1.4082E-12
2856.8	1.40905E-12
2858.6	1.40914E-12
2860.4	1.40312E-12
2862.4	1.40517E-12
2864.2	1.40803E-12
2866	1.39744E-12
2868	1.38492E-12
2869.8	1.38902E-12
2871.6	1.4311E-12
2873.6	1.48683E-12
2875.4	1.52723E-12
2877.2	1.5366E-12
2879.2	1.5231E-12
2881	1.50125E-12
2882.8	1.51279E-12
2884.8	1.36024E-12
2886.6	1.38128E-12
2888.4	1.39525E-12
2890.4	1.40407E-12
2892.2	1.32607E-12
2894.2	1.28815E-12
2896	1.31426E-12
2897.8	1.25751E-12
2899.8	1.31552E-12
2901.6	1.23697E-12
2903.4	1.12524E-12
2905.4	1.12159E-12
2907.2	1.20464E-12
2909	1.28784E-12
2911	1.31515E-12
2912.8	1.24438E-12
2914.6	1.32425E-12
2916.6	1.33183E-12
2918.4	1.3308E-12
2920.2	1.28292E-12
2922.2	1.4355E-12
2924	1.58205E-12
2925.8	1.67095E-12
2927.8	1.71522E-12
2929.6	1.67699E-12
2931.4	1.5657E-12
2933.4	1.54686E-12
2935.2	1.59423E-12
2937.2	1.52321E-12
2939	1.60233E-12
2940.8	1.61307E-12
2942.8	1.58729E-12
2944.6	1.5979E-12
2946.4	1.61076E-12
2948.4	1.60672E-12
2950.2	1.61981E-12
2952	1.59926E-12
2954	1.60926E-12
2955.8	1.50885E-12
2957.6	1.55384E-12
2959.6	1.58473E-12
2961.4	1.63578E-12
2963.2	1.62238E-12
2965.2	1.56297E-12
2967	1.5746E-12
2968.8	1.49586E-12
2970.8	1.57959E-12
2972.6	1.54126E-12
2974.4	1.55114E-12
2976.4	1.53345E-12
2978.2	1.4572E-12
2980.2	1.46598E-12
2982	1.64363E-12
2983.8	1.68203E-12
2985.8	1.57188E-12
2987.6	1.43194E-12
2989.4	1.2994E-12
2991.4	1.29668E-12
2993.2	1.29426E-12
2995	1.28796E-12
2997	1.33996E-12
2998.8	1.51896E-12
3000.6	1.55331E-12
3002.6	1.50895E-12
3004.4	1.43029E-12
3006.2	1.22277E-12
3008.2	1.14141E-12
3010	1.07162E-12
3011.8	1.12017E-12
3013.8	1.26097E-12
3015.6	1.35839E-12
3017.4	1.38461E-12
3019.4	1.34348E-12
3021.2	1.38707E-12
3023.2	1.38927E-12
3025	1.43153E-12
3026.8	1.41287E-12
3028.8	1.39661E-12
3030.6	1.32623E-12
3032.4	1.3149E-12
3034.4	1.38501E-12
3036.2	1.38876E-12
3038	1.41742E-12
3040	1.40029E-12
3041.8	1.3693E-12
3043.6	1.33426E-12
3045.6	1.30855E-12
3047.4	1.28695E-12
3049.2	1.3026E-12
3051.2	1.35017E-12
3053	1.40953E-12
3054.8	1.44825E-12
3056.8	1.38735E-12
3058.6	1.359E-12
3060.4	1.34552E-12
3062.4	1.39022E-12
3064.2	1.46762E-12
3066.2	1.44812E-12
3068	1.47604E-12
3069.8	1.4518E-12
3071.8	1.4409E-12
3073.6	1.39127E-12
3075.4	1.351E-12
3077.4	1.32329E-12
3079.2	1.4003E-12
3081	1.38419E-12
3083	1.31963E-12
3084.8	1.26925E-12
3086.6	1.21334E-12
3088.6	1.28891E-12
3090.4	1.44098E-12
3092.2	1.61122E-12
3094.2	1.62055E-12
3096	1.58816E-12
3097.8	1.56966E-12
3099.8	1.54562E-12
3101.6	1.51903E-12
3103.4	1.46603E-12
3105.4	1.43254E-12
3107.2	1.44236E-12
3109.2	1.47477E-12
3111	1.43171E-12
3112.8	1.3051E-12
3114.8	1.34125E-12
3116.6	1.32784E-12
3118.4	1.33757E-12
3120.4	1.26562E-12
3122.2	1.23245E-12
3124	1.2504E-12
3126	1.26313E-12
3127.8	1.19921E-12
3129.6	1.1963E-12
3131.6	1.1666E-12
3133.4	1.18857E-12
3135.2	1.1596E-12
3137.2	1.09511E-12
3139	1.09343E-12
3140.8	1.04572E-12
3142.8	1.04633E-12
3144.6	1.03382E-12
3146.4	9.72531E-13
3148.4	1.06027E-12
3150.2	1.22096E-12
3152.2	1.40876E-12
3154	1.46324E-12
3155.8	1.35549E-12
3157.8	1.42528E-12
3159.6	1.38219E-12
3161.4	1.32118E-12
3163.4	1.23566E-12
3165.2	1.19672E-12
3167	1.17096E-12
3169	1.24899E-12
3170.8	1.24553E-12
3172.6	1.24001E-12
3174.6	1.27305E-12
3176.4	1.39306E-12
3178.2	1.52411E-12
3180.2	1.53629E-12
3182	1.58433E-12
3183.8	1.47013E-12
3185.8	1.35358E-12
3187.6	1.38772E-12
3189.4	1.35896E-12
3191.4	1.46429E-12
3193.2	1.39304E-12
3195.2	1.36716E-12
3197	1.25535E-12
3198.8	1.21624E-12
3200.8	1.26735E-12
3202.6	1.31156E-12
3204.4	1.35284E-12
3206.4	1.32941E-12
3208.2	1.25769E-12
3210	1.21364E-12
3212	1.17109E-12
3213.8	1.16636E-12
3215.6	1.23237E-12
3217.6	1.24253E-12
3219.4	1.16499E-12
3221.2	1.17486E-12
3223.2	1.21612E-12
3225	1.3218E-12
3226.8	1.40077E-12
3228.8	1.40502E-12
3230.6	1.40217E-12
3232.4	1.35751E-12
3234.4	1.32461E-12
3236.2	1.17683E-12
3238.2	1.15308E-12
3240	1.09485E-12
3241.8	1.19199E-12
3243.8	1.28563E-12
3245.6	1.34312E-12
3247.4	1.3281E-12
3249.4	1.31737E-12
3251.2	1.45526E-12
3253	1.5912E-12
3255	1.80989E-12
3256.8	1.83273E-12
3258.6	1.69246E-12
3260.6	1.70049E-12
3262.4	1.78876E-12
3264.2	1.79528E-12
3266.2	1.85134E-12
3268	2.01637E-12
3269.8	2.15079E-12
3271.8	2.19539E-12
3273.6	1.98165E-12
3275.4	1.8362E-12
3277.4	1.93409E-12
3279.2	1.81062E-12
3281.2	1.70991E-12
3283	1.72005E-12
3284.8	1.74642E-12
3286.8	1.80667E-12
3288.6	1.80132E-12
3290.4	1.79216E-12
3292.4	1.89088E-12
3294.2	1.96555E-12
3296	2.06839E-12
3298	2.06873E-12
3299.8	2.2104E-12
3301.6	9.12081E-13
3303.6	8.22396E-13
3305.6	7.2E-13
3307.6	7.2E-13
3309.6	7.2E-13
3311.6	7.2E-13
3313.6	7.2E-13
3315.6	7.2E-13
3317.6	7.2E-13
3319.6	7.2E-13
3321.6	7.2E-13
3323.6	7.2E-13
3325.6	7.2E-13
3327.6	7.2E-13
3329.6	7.2E-13
3331.6	7.2E-13
3333.6	7.2E-13
3335.6	7.2E-13
3337.6	7.2E-13
3339.6	7.2E-13
3341.6	7.2E-13
3343.6	7.2E-13
3345.6	7.2E-13
3347.6	7.2E-13
3349.6	7.2E-13
3351.6	7.2E-13
3353.6	7.2E-13
3355.6	7.2E-13
3357.6	7.2E-13
3359.6	7.2E-13
3361.6	7.2E-13
3363.6	7.2E-13
3365.6	7.2E-13
3367.6	7.2E-13
3369.6	7.2E-13
3371.6	7.2E-13
3373.6	7.2E-13
3375.6	7.2E-13
3377.6	7.2E-13
3379.6	7.2E-13
3381.6	7.2E-13
3383.6	7.2E-13
3385.6	7.2E-13
3387.6	7.2E-13
3389.6	7.2E-13
3391.6	7.2E-13
3393.6	7.2E-13
3395.6	7.2E-13
3397.6	7.2E-13
3399.6	7.2E-13
3401.6	7.2E-13
3403.6	7.2E-13
3405.6	7.2E-13
3407.6	7.2E-13
3409.6	7.2E-13
3411.6	7.2E-13
3413.6	7.2E-13
3415.6	7.2E-13
3417.6	7.2E-13
3419.6	7.2E-13
3421.6	7.2E-13
3423.6	7.2E-13
3425.6	7.2E-13
3427.6	7.2E-13
3429.6	7.2E-13
3431.6	7.2E-13
3433.6	7.2E-13
3435.6	7.2E-13
3437.6	7.2E-13
3439.6	7.2E-13
3441.6	7.2E-13
3443.6	7.2E-13
3445.6	7.2E-13
3447.6	7.2E-13
3449.6	7.2E-13
3451.6	7.2E-13
3453.6	7.2E-13
3455.6	7.2E-13
3457.6	7.2E-13
3459.6	7.2E-13
3461.6	7.2E-13
3463.6	7.2E-13
3465.6	7.2E-13
3467.6	7.2E-13
3469.6	7.2E-13
3471.6	7.2E-13
3473.6	7.2E-13
3475.6	7.2E-13
3477.6	7.2E-13
3479.6	7.2E-13
3481.6	7.2E-13
3483.6	7.2E-13
3485.6	7.2E-13
3487.6	7.2E-13
3489.6	7.2E-13
3491.6	7.2E-13
3493.6	7.2E-13
3495.6	7.2E-13
3497.6	7.2E-13
3499.6	7.2E-13
3501.6	7.2E-13
3503.6	7.2E-13
3505.6	7.2E-13
3507.6	7.2E-13
3509.6	7.2E-13
3511.6	7.2E-13
3513.6	7.2E-13
3515.6	7.2E-13
3517.6	7.2E-13
3519.6	7.2E-13
3521.6	7.2E-13
3523.6	7.2E-13
3525.6	7.2E-13
3527.6	7.2E-13
3529.6	7.2E-13
3531.6	7.2E-13
3533.6	7.2E-13
3535.6	7.2E-13
3537.6	7.2E-13
3539.6	7.2E-13
3541.6	7.2E-13
3543.6	7.2E-13
3545.6	7.2E-13
3547.6	7.2E-13
3550.04	6.2E-13
3551.78	1.39E-12
3553.52	1.143E-12
3555.25	1.107E-12
3556.99	1.168E-12
3558.73	1.097E-12
3560.47	7.532E-13
3562.21	1.119E-12
3563.95	1.061E-12
3565.69	1.574E-12
3567.42	1.355E-12
3569.16	9.143E-13
3570.9	1.181E-12
3572.64	1.147E-12
3574.38	1.431E-12
3576.12	1.236E-12
3577.86	8.805E-13
3579.59	7.645E-13
3581.33	1.408E-12
3583.07	1.121E-12
3584.81	1.194E-12
3586.55	1.516E-12
3588.29	1.27E-12
3590.03	1.127E-12
3591.77	1.08E-12
3593.5	1.317E-12
3595.24	9.222E-13
3596.98	9.911E-13
3598.72	9.231E-13
3600.46	9.389E-13
3602.2	1.11E-12
3603.94	1.227E-12
3605.68	1.037E-12
3607.42	1.141E-12
3609.15	1.244E-12
3610.89	1.08E-12
3612.63	1.172E-12
3614.37	1.522E-12
3616.11	9.629E-13
3617.85	1.244E-12
3619.59	1.076E-12
3621.33	1.312E-12
3623.07	1.176E-12
3624.8	1.294E-12
3626.54	9.453E-13
3628.28	9.617E-13
3630.02	1.078E-12
3631.76	1.335E-12
3633.5	9.259E-13
3635.24	1.279E-12
3636.98	1.02E-12
3638.72	7.638E-13
3640.46	8.735E-13
3642.2	9.909E-13
3643.94	1.159E-12
3645.67	1.119E-12
3647.41	1.175E-12
3649.15	1.104E-12
3650.89	1.24E-12
3652.63	1.093E-12
3654.37	1.12E-12
3656.11	1.069E-12
3657.85	9.538E-13
3659.59	1.127E-12
3661.33	1.335E-12
3663.07	1.093E-12
3664.81	1.199E-12
3666.55	1.246E-12
3668.29	1.061E-12
3670.02	1.16E-12
3671.76	9.047E-13
3673.5	1.293E-12
3675.24	1.085E-12
3676.98	1.147E-12
3678.72	1.458E-12
3680.46	1.402E-12
3682.2	1.103E-12
3683.94	9.518E-13
3685.68	1.233E-12
3687.42	1.378E-12
3689.16	1.025E-12
3690.9	9.782E-13
3692.64	1.337E-12
3694.38	1.069E-12
3696.12	1.224E-12
3697.86	1.152E-12
3699.6	1.142E-12
3701.34	9.381E-13
3703.08	1.296E-12
3704.82	1.532E-12
3706.56	1.432E-12
3708.3	1.388E-12
3710.03	1.393E-12
3711.77	1.18E-12
3713.51	1.175E-12
3715.25	8.35E-13
3716.99	9.79E-13
3718.73	1.007E-12
3720.47	1.376E-12
3722.21	1.679E-12
3723.95	1.119E-12
3725.69	9.501E-13
3727.43	1.151E-12
3729.17	1.013E-12
3730.91	1.012E-12
3732.65	1.066E-12
3734.39	1.845E-12
3736.13	1.733E-12
3737.87	1.675E-12
3739.61	1.028E-12
3741.35	8.687E-13
3743.09	9.028E-13
3744.83	9.128E-13
3746.57	1.257E-12
3748.31	1.211E-12
3750.05	2.037E-12
3751.79	1.716E-12
3753.53	1.088E-12
3755.27	9.225E-13
3757.01	8.777E-13
3758.75	8.697E-13
3760.49	9.879E-13
3762.23	9.258E-13
3763.97	8.418E-13
3765.71	9.689E-13
3767.45	1.285E-12
3769.19	1.346E-12
3770.93	2.477E-12
3772.67	1.833E-12
3774.41	1.283E-12
3776.15	1.028E-12
3777.89	7.9E-13
3779.63	8.747E-13
3781.37	6.792E-13
3783.11	7.984E-13
3784.86	8.273E-13
3786.6	7.615E-13
3788.34	9.976E-13
3790.08	9.56E-13
3791.82	7.91E-13
3793.56	1.15E-12
3795.3	1.391E-12
3797.04	2.088E-12
3798.78	3.21E-12
3800.52	1.795E-12
3802.26	1.377E-12
3804	9.442E-13
3805.74	8.332E-13
3807.48	9.307E-13
3809.22	8.41E-13
3810.96	6.847E-13
3812.7	7.442E-13
3814.44	7.367E-13
3816.18	8.865E-13
3817.92	6.401E-13
3819.66	8.82E-13
3821.4	1.114E-12
3823.15	7.388E-13
3824.89	9.644E-13
3826.63	9.053E-13
3828.37	1.011E-12
3830.11	1.27E-12
3831.85	1.491E-12
3833.59	1.896E-12
3835.33	3.359E-12
3837.07	2.956E-12
3838.81	1.838E-12
3840.55	1.255E-12
3842.29	1.086E-12
3844.03	8.542E-13
3845.77	7.861E-13
3847.51	6.439E-13
3849.26	6.789E-13
3851	7.096E-13
3852.74	7.292E-13
3854.48	6.888E-13
3856.22	8.465E-13
3857.96	7.206E-13
3859.7	7.469E-13
3861.44	7.156E-13
3863.18	6.195E-13
3864.92	6.799E-13
3866.66	6.688E-13
3868.41	5.943E-13
3870.15	5.295E-13
3871.89	7.375E-13
3873.63	7.837E-13
3875.37	7.217E-13
3877.11	6.681E-13
3878.85	9.874E-13
3880.59	7.582E-13
3882.33	8.57E-13
3884.07	1.152E-12
3885.82	1.408E-12
3887.56	2.409E-12
3889.3	4.508E-12
3891.04	3.184E-12
3892.78	1.66E-12
3894.52	1.26E-12
3896.26	1.041E-12
3898	8.93E-13
3899.74	8.983E-13
3901.49	7.753E-13
3903.23	8.199E-13
3904.97	8.35E-13
3906.71	9.566E-13
3908.45	6.638E-13
3910.19	5.765E-13
3911.93	5.28E-13
3913.67	7.106E-13
3915.42	5.408E-13
3917.16	7.008E-13
3918.9	6.895E-13
3920.64	7.451E-13
3922.38	6.748E-13
3924.12	6.175E-13
3925.86	6.214E-13
3927.61	7.444E-13
3929.35	7.689E-13
3931.09	8.685E-13
3932.83	1.661E-12
3934.57	4.09E-12
3936.31	1.009E-12
3938.05	7.439E-13
3939.8	7.118E-13
3941.54	7.103E-13
3943.28	6.618E-13
3945.02	7.747E-13
3946.76	5.858E-13
3948.5	6.297E-13
3950.25	6.665E-13
3951.99	6.558E-13
3953.73	6.755E-13
3955.47	7.092E-13
3957.21	7.619E-13
3958.95	6.678E-13
3960.7	8.052E-13
3962.44	1.037E-12
3964.18	1.041E-12
3965.92	1.474E-12
3967.66	2.795E-12
3969.4	6.17E-12
3971.15	5.234E-12
3972.89	2.55E-12
3974.63	1.674E-12
3976.37	1.225E-12
3978.11	1.058E-12
3979.85	8.672E-13
3981.6	7.997E-13
3983.34	7.504E-13
3985.08	7.565E-13
3986.82	7.019E-13
3988.56	7.042E-13
3990.31	6.566E-13
3992.05	6.416E-13
3993.79	6.679E-13
3995.53	6.097E-13
3997.27	6.575E-13
3999.02	6.454E-13
4000.76	6.27E-13
4002.5	6.701E-13
4004.24	6.14E-13
4005.98	8.214E-13
4007.73	6.7E-13
4009.47	6.961E-13
4011.21	6.494E-13
4012.95	6.489E-13
4014.69	6.983E-13
4016.44	6.155E-13
4018.18	6.877E-13
4019.92	6.044E-13
4021.66	6.407E-13
4023.4	6.829E-13
4025.15	7.368E-13
4026.89	9.593E-13
4028.63	7.267E-13
4030.37	6.983E-13
4032.12	7.234E-13
4033.86	7.21E-13
4035.6	6.559E-13
4037.34	6.655E-13
4039.08	6.3E-13
4040.83	6.595E-13
4042.57	6.757E-13
4044.31	6.706E-13
4046.05	8.228E-13
4047.8	6.465E-13
4049.54	6.317E-13
4051.28	6.608E-13
4053.02	6.846E-13
4054.77	6.423E-13
4056.51	6.774E-13
4058.25	7.243E-13
4059.99	6.745E-13
4061.74	6.793E-13
4063.48	8.123E-13
4065.22	7.213E-13
4066.96	7.059E-13
4068.71	6.946E-13
4070.45	7.142E-13
4072.19	7.922E-13
4073.93	6.806E-13
4075.68	7.132E-13
4077.42	8.568E-13
4079.16	8.006E-13
4080.9	7.362E-13
4082.65	7.006E-13
4084.39	7.346E-13
4086.13	7.411E-13
4087.87	7.251E-13
4089.62	7.404E-13
4091.36	8.062E-13
4093.1	8.662E-13
4094.84	1.06E-12
4096.59	1.31E-12
4098.33	1.849E-12
4100.07	2.935E-12
4101.82	6.126E-12
4103.56	4.464E-12
4105.3	2.277E-12
4107.04	1.595E-12
4108.79	1.191E-12
4110.53	1.032E-12
4112.27	8.678E-13
4114.02	8.692E-13
4115.76	7.319E-13
4117.5	7.287E-13
4119.24	7.764E-13
4120.99	7.432E-13
4122.73	7.381E-13
4124.47	6.842E-13
4126.22	7.16E-13
4127.96	7.852E-13
4129.7	6.998E-13
4131.44	7.509E-13
4133.19	8.11E-13
4134.93	7.399E-13
4136.67	6.939E-13
4138.42	6.834E-13
4140.16	6.883E-13
4141.9	6.804E-13
4143.65	8.028E-13
4145.39	7.241E-13
4147.13	6.954E-13
4148.88	7.071E-13
4150.62	7.136E-13
4152.36	6.822E-13
4154.11	7.315E-13
4155.85	7.612E-13
4157.59	7.498E-13
4159.34	7.466E-13
4161.08	7.238E-13
4162.82	6.962E-13
4164.56	7.027E-13
4166.31	6.856E-13
4168.05	7.36E-13
4169.79	7.201E-13
4171.54	7.079E-13
4173.28	8.086E-13
4175.02	7.565E-13
4176.77	7.315E-13
4178.51	8.009E-13
4180.25	7.656E-13
4182	7.227E-13
4183.74	7.471E-13
4185.49	7.159E-13
4187.23	7.308E-13
4188.97	7.487E-13
4190.72	6.679E-13
4192.46	7.368E-13
4194.2	6.494E-13
4195.95	7.373E-13
4197.69	6.972E-13
4199.43	7.811E-13
4201.18	7.06E-13
4202.92	8.214E-13
4204.66	7.052E-13
4206.41	7.023E-13
4208.15	7.006E-13
4209.89	6.864E-13
4211.64	6.897E-13
4213.38	6.581E-13
4215.13	7.642E-13
4216.87	8.319E-13
4218.61	6.454E-13
4220.36	6.424E-13
4222.1	6.169E-13
4223.84	6.034E-13
4225.59	6.713E-13
4227.33	9.315E-13
4229.08	6.145E-13
4230.82	5.658E-13
4232.56	7.063E-13
4234.31	8.477E-13
4236.05	6.922E-13
4237.79	6.622E-13
4239.54	6.91E-13
4241.28	6.544E-13
4243.03	6.511E-13
4244.77	6.15E-13
4246.51	7.048E-13
4248.26	7.12E-13
4250	7.227E-13
4251.75	7.702E-13
4253.49	6.143E-13
4255.23	7.374E-13
4256.98	6.451E-13
4258.72	6.84E-13
4260.47	7.656E-13
4262.21	6.85E-13
4263.95	6.493E-13
4265.7	6.51E-13
4267.44	6.747E-13
4269.19	6.687E-13
4270.93	7.715E-13
4272.67	8.07E-13
4274.42	7.033E-13
4276.16	6.941E-13
4277.91	6.45E-13
4279.65	6.676E-13
4281.39	6.865E-13
4283.14	7.234E-13
4284.88	6.722E-13
4286.63	6.97E-13
4288.37	6.782E-13
4290.12	8.126E-13
4291.86	7.216E-13
4293.6	7.483E-13
4295.35	7.636E-13
4297.09	7.182E-13
4298.84	7.166E-13
4300.58	8.525E-13
4302.33	7.637E-13
4304.07	8.185E-13
4305.81	7.366E-13
4307.56	7.862E-13
4309.3	8.094E-13
4311.05	7.48E-13
4312.79	7.834E-13
4314.54	7.995E-13
4316.28	7.465E-13
4318.03	7.1E-13
4319.77	7.314E-13
4321.51	7.624E-13
4323.26	7.683E-13
4325	8.31E-13
4326.75	9.041E-13
4328.49	8.496E-13
4330.24	9.154E-13
4331.98	9.977E-13
4333.73	1.197E-12
4335.47	1.476E-12
4337.22	2.082E-12
4338.96	3.5E-12
4340.71	7.191E-12
4342.45	4.636E-12
4344.19	2.441E-12
4345.94	1.663E-12
4347.68	1.266E-12
4349.43	1.104E-12
4351.17	1.041E-12
4352.92	1.079E-12
4354.66	7.907E-13
4356.41	8.071E-13
4358.15	7.886E-13
4359.9	7.683E-13
4361.64	7.427E-13
4363.39	7.175E-13
4365.13	7.12E-13
4366.88	7.509E-13
4368.62	7.692E-13
4370.37	7.772E-13
4372.11	7.396E-13
4373.86	7.479E-13
4375.6	8.154E-13
4377.35	7.66E-13
4379.09	7.279E-13
4380.84	7.209E-13
4382.58	7.657E-13
4384.33	9.223E-13
4386.07	8.397E-13
4387.82	8.375E-13
4389.56	7.893E-13
4391.31	7.707E-13
4393.05	7.754E-13
4394.8	8.111E-13
4396.54	8.004E-13
4398.29	7.689E-13
4400.03	7.637E-13
4401.78	7.965E-13
4403.52	7.645E-13
4405.27	8.943E-13
4407.01	7.699E-13
4408.76	7.845E-13
4410.5	8.073E-13
4412.25	7.77E-13
4413.99	7.817E-13
4415.74	9.23E-13
4417.48	9.1E-13
4419.23	8.373E-13
4420.97	7.724E-13
4422.72	8.109E-13
4424.46	7.851E-13
4426.21	7.285E-13
4427.95	8.294E-13
4429.7	7.818E-13
4431.45	8.302E-13
4433.19	8.163E-13
4434.94	7.84E-13
4436.68	7.604E-13
4438.43	7.734E-13
4440.17	1.11E-12
