	1038 s
A	erg/s/cm2/A
1003.6	4.66099E-14
1007	2.23173E-13
1008.2	3.56591E-13
1011.8	3.89958E-13
1013	8.77577E-14
1015.4	2.34447E-13
1016.6	4.11829E-13
1017.6	1.26764E-13
1018.8	1.08471E-13
1023.6	6.74452E-14
1024.8	1.47411E-14
1026	1.15761E-13
1027.2	1.03443E-13
1029.4	3.77355E-14
1030.6	1.64386E-13
1035.4	1.85941E-13
1036.6	9.66013E-14
1044.8	1.16175E-13
1046	3.75544E-14
1048.4	7.37876E-14
1050.8	3.1966E-13
1052	3.05302E-13
1053	7.10497E-14
1056.6	3.7964E-13
1057.8	2.62706E-13
1063.8	2.87169E-15
1069.6	1.16841E-13
1072	2.26575E-14
1076.6	8.32194E-15
1079	4.28648E-14
1080.2	7.14304E-14
1083.8	7.45262E-14
1086.2	3.5937E-14
1088.4	8.17351E-14
1089.6	3.23753E-13
1094.4	4.81297E-14
1095.6	1.58119E-13
1098	3.17349E-14
1099.2	7.29388E-14
1103.8	1.65621E-13
1105	2.82256E-14
1106.2	2.27746E-14
1108.6	6.49215E-14
1112	8.25671E-14
1113.2	1.01257E-13
1114.4	5.8762E-15
1115.6	1.81822E-13
1116.8	2.27186E-13
1118	1.80438E-13
1119.2	1.92035E-13
1120.4	2.17298E-13
1121.6	5.69589E-14
1122.6	7.78855E-14
1125	5.21272E-14
1129.8	3.15185E-14
1132.2	2.71124E-14
1133.4	1.34289E-14
1134.4	2.61398E-13
1135.6	9.49924E-14
1136.8	2.07422E-13
1138	9.09847E-14
1139.2	1.99116E-13
1140.4	1.98611E-13
1141.6	4.63893E-13
1142.8	2.72203E-13
1144	4.12906E-13
1145.2	4.49767E-13
1146.2	6.97516E-13
1147.4	5.76986E-13
1148.6	8.67288E-13
1149.8	8.69733E-13
1151	4.68988E-13
1152.2	5.06451E-13
1153.4	5.1714E-13
1154.6	4.896E-13
1155.8	4.93723E-13
1157	6.51501E-13
1158	7.41541E-13
1159.2	6.71744E-13
1160.4	9.57679E-13
1161.6	1.40652E-12
1162.8	9.79411E-13
1164	6.83762E-13
1165.2	6.2831E-13
1166.4	7.06904E-13
1167.6	6.49692E-13
1168.8	7.0205E-13
1169.8	7.12794E-13
1171	9.39487E-13
1172.2	1.54202E-12
1173.4	2.23487E-12
1174.6	2.49145E-12
1175.8	2.50863E-12
1177	1.87236E-12
1178.2	1.26171E-12
1179.4	9.3146E-13
1180.6	7.55703E-13
1181.6	6.59306E-13
1182.8	5.99381E-13
1184	6.50967E-13
1185.2	6.03654E-13
1186.4	5.6068E-13
1187.6	6.64397E-13
1188.8	6.41082E-13
1190	6.08342E-13
1191.2	6.41896E-13
1192.4	6.41896E-13
1193.4	6.41896E-13
1194.6	6.41896E-13
1195.8	6.41896E-13
1197	6.41896E-13
1198.2	6.41896E-13
1199.4	6.41896E-13
1200.91	6.41896E-13
1202.61	6.41896E-13
1204.41	6.39922E-13
1206.11	3.75198E-12
1207.91	6.39922E-13
1209.61	6.39922E-13
1211.41	6.39922E-13
1213.11	1.64633E-12
1214.91	2.06867E-11
1216.61	2.29183E-11
1218.41	2.67074E-12
1220.11	6.41896E-13
1221.91	6.41896E-13
1223.61	6.41896E-13
1225.41	6.41896E-13
1227.11	6.41896E-13
1228.91	6.41896E-13
1231.2	6.69105E-13
1232.4	6.8535E-13
1233.6	6.99398E-13
1234.8	6.78336E-13
1236	8.02569E-13
1237.2	8.85549E-13
1238.4	8.26532E-13
1239.4	8.54793E-13
1240.6	8.73617E-13
1241.8	8.54372E-13
1243	7.84969E-13
1244.2	8.28225E-13
1245.4	8.48127E-13
1246.6	8.59677E-13
1247.8	8.88918E-13
1249	7.87618E-13
1250.2	7.53989E-13
1251.2	7.27435E-13
1252.4	6.97398E-13
1253.6	6.94129E-13
1254.8	6.75846E-13
1256	7.76072E-13
1257.2	7.20598E-13
1258.4	6.57097E-13
1259.6	6.62994E-13
1260.8	7.09484E-13
1262	8.13839E-13
1263	7.74774E-13
1264.2	7.70341E-13
1265.4	7.1886E-13
1266.6	7.41888E-13
1267.8	8.07917E-13
1269	7.75582E-13
1270.2	7.52902E-13
1271.4	7.04016E-13
1272.6	7.12819E-13
1273.8	8.05812E-13
1274.8	7.87264E-13
1276	7.13456E-13
1277.2	7.53426E-13
1278.4	7.17883E-13
1279.6	8.06637E-13
1280.8	7.17364E-13
1282	7.63133E-13
1283.2	7.51649E-13
1284.4	7.46613E-13
1285.6	7.98714E-13
1286.6	8.08091E-13
1287.8	8.68506E-13
1289	7.97029E-13
1290.2	9.36287E-13
1291.4	8.19469E-13
1292.6	8.53068E-13
1293.8	9.07484E-13
1295	9.93263E-13
1296.2	1.08534E-12
1297.4	1.16824E-12
1298.4	1.12511E-12
1299.6	9.97434E-13
1300.8	1.06274E-12
1302	1.05513E-12
1303.2	1.11215E-12
1304.4	9.50308E-13
1305.6	8.44846E-13
1306.8	8.63744E-13
1308	8.07394E-13
1309.2	7.16119E-13
1310.2	8.19113E-13
1311.4	9.12587E-13
1312.6	8.06922E-13
1313.8	7.97506E-13
1315	7.81571E-13
1316.2	7.93093E-13
1317.4	7.87146E-13
1318.6	7.14856E-13
1319.8	8.11102E-13
1320.8	7.28235E-13
1322	7.49546E-13
1323.2	8.06151E-13
1324.4	8.1823E-13
1325.6	8.1473E-13
1326.8	8.05469E-13
1328	7.20104E-13
1329.2	8.28306E-13
1330.4	8.20044E-13
1331.6	8.82325E-13
1332.6	1.17338E-12
1333.8	1.36535E-12
1335	1.49177E-12
1336.2	1.4767E-12
1337.4	1.33981E-12
1338.6	1.05864E-12
1339.8	8.54939E-13
1341	6.96862E-13
1342.2	7.99512E-13
1343.4	8.29918E-13
1344.4	7.53204E-13
1345.6	8.06503E-13
1346.8	7.36685E-13
1348	7.8111E-13
1349.2	7.17347E-13
1350.4	6.61047E-13
1351.6	7.1623E-13
1352.8	7.35E-13
1354	7.78272E-13
1355.2	8.27569E-13
1356.2	7.77172E-13
1357.4	7.09747E-13
1358.6	7.08437E-13
1359.8	7.22787E-13
1361	7.33957E-13
1362.2	7.10361E-13
1363.4	7.50535E-13
1364.6	7.91177E-13
1365.8	8.08816E-13
1367	7.76169E-13
1368	7.39238E-13
1369.2	7.61111E-13
1370.4	6.98959E-13
1371.6	7.45006E-13
1372.8	8.58146E-13
1374	7.74967E-13
1375.2	7.16456E-13
1376.4	6.58242E-13
1377.6	7.45548E-13
1378.8	7.63856E-13
1379.8	6.87717E-13
1381	7.49257E-13
1382.2	8.11134E-13
1383.4	6.87324E-13
1384.6	7.09161E-13
1385.8	7.34703E-13
1387	7.3258E-13
1388.2	8.09729E-13
1389.4	8.83159E-13
1390.6	1.04994E-12
1391.6	1.3628E-12
1392.8	1.68419E-12
1394	1.73026E-12
1395.2	1.55731E-12
1396.4	1.18718E-12
1397.6	9.56424E-13
1398.8	9.90314E-13
1400	1.11983E-12
1401.2	1.35485E-12
1402.4	1.36255E-12
1403.4	1.32797E-12
1404.6	1.29147E-12
1405.8	9.75556E-13
1407	8.25495E-13
1408.2	7.68744E-13
1409.4	8.33822E-13
1410.6	7.14368E-13
1411.8	6.91702E-13
1413	7.52754E-13
1414	7.70559E-13
1415.2	7.65251E-13
1416.4	7.97686E-13
1417.6	7.89999E-13
1418.8	7.87502E-13
1420	7.26096E-13
1421.2	7.16496E-13
1422.4	7.94361E-13
1423.6	7.58912E-13
1424.8	7.69622E-13
1425.8	7.5517E-13
1427	7.11818E-13
1428.2	7.32011E-13
1429.4	7.44797E-13
1430.6	7.74233E-13
1431.8	7.47798E-13
1433	8.20109E-13
1434.2	7.34156E-13
1435.4	7.0498E-13
1436.6	7.1918E-13
1437.6	7.18971E-13
1438.8	7.14661E-13
1440	7.19795E-13
1441.2	6.91241E-13
1442.4	7.23806E-13
1443.6	7.46789E-13
1444.8	7.78223E-13
1446	7.53386E-13
1447.2	7.57491E-13
1448.4	7.47317E-13
1449.4	7.52708E-13
1450.6	8.17946E-13
1451.8	7.62348E-13
1453	7.04942E-13
1454.2	7.06731E-13
1455.4	7.59111E-13
1456.6	7.59987E-13
1457.8	8.14625E-13
1459	7.79794E-13
1460.2	7.49563E-13
1461.2	7.61266E-13
1462.4	7.83244E-13
1463.6	7.2926E-13
1464.8	7.59132E-13
1466	8.21105E-13
1467.2	7.87574E-13
1468.4	8.13945E-13
1469.6	8.52096E-13
1470.8	8.18724E-13
1472	7.65293E-13
1473	7.88369E-13
1474.2	8.29432E-13
1475.4	7.99245E-13
1476.6	8.17687E-13
1477.8	8.24847E-13
1479	7.72029E-13
1480.2	8.08186E-13
1481.4	8.58398E-13
1482.6	7.84039E-13
1483.8	8.03468E-13
1484.8	8.61621E-13
1486	8.3656E-13
1487.2	9.00404E-13
1488.4	8.37289E-13
1489.6	8.72694E-13
1490.8	8.05279E-13
1492	8.13807E-13
1493.2	8.24232E-13
1494.4	8.66587E-13
1495.6	8.64853E-13
1496.6	8.48386E-13
1497.8	8.66125E-13
1499	8.71123E-13
1500.2	8.91753E-13
1501.4	8.90773E-13
1502.6	8.95876E-13
1503.8	8.03324E-13
1505	8.14163E-13
1506.2	7.93041E-13
1507.4	8.0626E-13
1508.4	7.83373E-13
1509.6	7.67033E-13
1510.8	8.00786E-13
1512	8.28022E-13
1513.2	7.66951E-13
1514.4	7.03547E-13
1515.6	7.09697E-13
1516.8	7.03863E-13
1518	7.73971E-13
1519	8.60755E-13
1520.2	8.11385E-13
1521.4	7.94897E-13
1522.6	8.16034E-13
1523.8	8.38933E-13
1525	9.23327E-13
1526.2	8.33806E-13
1527.4	7.8773E-13
1528.6	8.70207E-13
1529.8	9.20889E-13
1530.8	8.65631E-13
1532	8.42821E-13
1533.2	8.24548E-13
1534.4	8.71957E-13
1535.6	8.08518E-13
1536.8	8.08518E-13
1538	8.08518E-13
1539.2	8.08518E-13
1540.4	8.08518E-13
1541.6	8.08518E-13
1542.6	8.08518E-13
1543.8	8.08518E-13
1545	8.08518E-13
1546.2	8.96006E-13
1547.4	1.05801E-12
1548.6	1.12727E-12
1549.8	1.12629E-12
1551	1.05606E-12
1552.2	9.79177E-13
1553.4	8.09982E-13
1554.4	8.08518E-13
1555.6	8.08518E-13
1556.8	8.08518E-13
1558	8.08518E-13
1559.2	8.08518E-13
1560.4	8.08518E-13
1561.6	8.08518E-13
1562.8	8.08518E-13
1564	8.08518E-13
1565.2	8.87395E-13
1566.2	9.02729E-13
1567.4	8.9134E-13
1568.6	8.55004E-13
1569.8	8.59078E-13
1571	8.3967E-13
1572.2	7.73824E-13
1573.4	8.2543E-13
1574.6	8.01916E-13
1575.8	8.42854E-13
1577	8.67202E-13
1578	9.02858E-13
1579.2	8.80664E-13
1580.4	9.29864E-13
1581.6	8.83637E-13
1582.8	8.46831E-13
1584	8.48248E-13
1585.2	8.55579E-13
1586.4	8.74111E-13
1587.6	8.20206E-13
1588.8	8.39468E-13
1589.8	8.26913E-13
1591	8.22393E-13
1592.2	8.27269E-13
1593.4	8.24459E-13
1594.6	8.65671E-13
1595.8	8.69E-13
1597	8.41112E-13
1598.2	7.98816E-13
1599.4	8.23924E-13
1600.6	8.294E-13
1601.6	7.74008E-13
1602.8	8.4662E-13
1604	8.45794E-13
1605.2	8.05582E-13
1606.4	7.8516E-13
1607.6	8.19015E-13
1608.8	8.98331E-13
1610	8.28857E-13
1611.2	7.90341E-13
1612.4	7.69521E-13
1613.4	7.87727E-13
1614.6	8.43024E-13
1615.8	8.08257E-13
1617	7.38423E-13
1618.2	7.51809E-13
1619.4	8.22118E-13
1620.6	8.68628E-13
1621.8	8.4658E-13
1623	8.08759E-13
1624	8.22085E-13
1625.2	7.97659E-13
1626.4	7.90114E-13
1627.6	8.12843E-13
1628.8	7.65358E-13
1630	7.77755E-13
1631.2	8.08359E-13
1632.4	8.21672E-13
1633.6	8.46685E-13
1634.8	8.94993E-13
1635.8	9.10594E-13
1637	9.09776E-13
1638.2	1.09497E-12
1639.4	1.14469E-12
1640.6	1.19708E-12
1641.8	1.18695E-12
1643	1.05685E-12
1644.2	9.32294E-13
1645.4	8.32664E-13
1646.6	8.19445E-13
1647.6	8.21056E-13
1648.8	8.35766E-13
1650	7.37968E-13
1651.2	7.4924E-13
1652.4	8.38787E-13
1653.6	8.10024E-13
1654.8	8.37435E-13
1656	8.96945E-13
1657.2	9.42743E-13
1658.4	9.46153E-13
1659.4	9.16483E-13
1660.6	8.6994E-13
1661.8	8.55644E-13
1663	8.51075E-13
1664.2	8.17444E-13
1665.4	8.42505E-13
1666.6	8.29327E-13
1667.8	8.01101E-13
1669	8.01132E-13
1670.2	7.57094E-13
1671.2	7.80731E-13
1672.4	8.17322E-13
1673.6	8.28525E-13
1674.8	8.38796E-13
1676	8.08796E-13
1677.2	8.07941E-13
1678.4	8.20157E-13
1679.6	7.55578E-13
1680.8	7.73581E-13
1682	8.06868E-13
1683	7.99426E-13
1684.2	7.84396E-13
1685.4	7.62276E-13
1686.6	7.35646E-13
1687.8	7.85357E-13
1689	8.22336E-13
1690.2	7.90537E-13
1691.4	8.0297E-13
1692.6	8.25795E-13
1693.8	8.39873E-13
1694.8	8.78737E-13
1696	8.31692E-13
1697.2	7.81462E-13
1698.4	8.08581E-13
1699.6	8.31538E-13
1700.8	8.11296E-13
1702	8.26257E-13
1703.2	7.7244E-13
1704.4	7.68843E-13
1705.6	7.91689E-13
1706.6	7.93508E-13
1707.8	7.90186E-13
1709	7.506E-13
1710.2	7.60311E-13
1711.4	8.05107E-13
1712.6	8.22806E-13
1713.8	8.07991E-13
1715	8.27075E-13
1716.2	8.32348E-13
1717.4	8.00767E-13
1718.4	8.40359E-13
1719.6	8.7898E-13
1720.8	8.51359E-13
1722	8.14188E-13
1723.2	7.75274E-13
1724.4	7.81002E-13
1725.6	8.17549E-13
1726.8	8.05385E-13
1728	8.02366E-13
1729	8.16286E-13
1730.2	7.94122E-13
1731.4	7.96297E-13
1732.6	7.68126E-13
1733.8	7.62365E-13
1735	7.82688E-13
1736.2	8.2215E-13
1737.4	8.22944E-13
1738.6	8.06474E-13
1739.8	8.27172E-13
1740.8	8.12106E-13
1742	7.82362E-13
1743.2	7.80131E-13
1744.4	7.96937E-13
1745.6	8.06674E-13
1746.8	8.41185E-13
1748	8.69576E-13
1749.2	8.45859E-13
1750.4	8.395E-13
1751.6	8.41104E-13
1752.6	8.18108E-13
1753.8	8.46207E-13
1755	8.59945E-13
1756.2	8.49812E-13
1757.4	8.60981E-13
1758.6	8.54979E-13
1759.8	8.10697E-13
1761	7.82824E-13
1762.2	8.36139E-13
1763.4	8.6666E-13
1764.4	8.5327E-13
1765.6	8.22717E-13
1766.8	8.48767E-13
1768	8.54785E-13
1769.2	8.36714E-13
1770.4	8.31279E-13
1771.6	8.16537E-13
1772.8	8.3153E-13
1774	8.49876E-13
1775.2	8.58592E-13
1776.2	8.62286E-13
1777.4	8.52258E-13
1778.6	8.34762E-13
1779.8	8.32737E-13
1781	8.11669E-13
1782.2	8.37216E-13
1783.4	8.42878E-13
1784.6	8.59507E-13
1785.8	8.62755E-13
1787	8.53116E-13
1788	8.05784E-13
1789.2	7.65275E-13
1790.4	6.88367E-13
1791.6	5.8483E-13
1792.8	5.44801E-13
1794	6.05091E-13
1795.2	6.83094E-13
1796.4	7.40926E-13
1797.6	7.85847E-13
1798.8	8.12219E-13
1799.8	8.10591E-13
1801	8.35296E-13
1802.2	8.38318E-13
1803.4	8.34446E-13
1804.6	8.1921E-13
1805.8	8.47981E-13
1807	8.53789E-13
1808.2	8.66506E-13
1809.4	8.54453E-13
1810.6	8.48046E-13
1811.6	8.21607E-13
1812.8	8.08777E-13
1814	8.11823E-13
1815.2	8.29594E-13
1816.4	8.32737E-13
1817.6	8.69041E-13
1818.8	8.5182E-13
1820	8.35718E-13
1821.2	8.10729E-13
1822.4	8.09095E-13
1823.4	8.14042E-13
1824.6	8.27083E-13
1825.8	8.31992E-13
1827	8.42157E-13
1828.2	8.38553E-13
1829.4	8.19064E-13
1830.6	7.9381E-13
1831.8	7.91559E-13
1833	7.71786E-13
1834	7.6722E-13
1835.2	7.71416E-13
1836.4	7.84711E-13
1837.6	7.83145E-13
1838.8	7.85119E-13
1840	7.90955E-13
1841.2	7.80424E-13
1842.4	7.94806E-13
1843.6	8.01342E-13
1844.8	7.82296E-13
1845.8	7.85229E-13
1847	7.90821E-13
1848.2	8.02239E-13
1849.4	7.89319E-13
1850.6	8.13507E-13
1851.8	8.26362E-13
1853	8.40432E-13
1854.2	8.36738E-13
1855.4	8.36552E-13
1856.6	8.29578E-13
1857.6	8.42732E-13
1858.8	8.47997E-13
1860	8.46239E-13
1861.2	8.37257E-13
1862.4	8.46644E-13
1863.6	8.24515E-13
1864.8	8.31554E-13
1866	8.1162E-13
1867.2	7.8786E-13
1868.4	7.58725E-13
1869.4	7.83053E-13
1870.6	7.75641E-13
1871.8	7.96142E-13
1873	7.92794E-13
1874.2	7.92244E-13
1875.4	7.79901E-13
1876.6	7.84706E-13
1877.8	7.65331E-13
1879	7.64263E-13
1880.2	7.64883E-13
1881.2	7.87498E-13
1882.4	7.82573E-13
1883.6	7.9429E-13
1884.8	7.7331E-13
1886	7.79866E-13
1887.2	7.71912E-13
1888.4	7.89393E-13
1889.6	7.75737E-13
1890.8	7.90082E-13
1892	7.94789E-13
1893	8.08274E-13
1894.2	8.00779E-13
1895.4	8.03663E-13
1896.6	8.01076E-13
1897.8	7.97509E-13
1899	7.84983E-13
1900.2	7.90847E-13
1901.4	7.83562E-13
1902.6	7.79395E-13
1903.8	7.60511E-13
1904.8	7.60212E-13
1906	7.56282E-13
1907.2	7.78455E-13
1908.4	7.81017E-13
1909.6	7.8897E-13
1910.8	7.79339E-13
1912	7.84686E-13
1913.2	7.86876E-13
1914.4	7.92768E-13
1915.6	7.9083E-13
1916.6	8.03392E-13
1917.8	7.86076E-13
1919	7.79208E-13
1920.2	7.62569E-13
1921.4	7.65833E-13
1922.6	7.81761E-13
1923.8	7.87974E-13
1925	7.7693E-13
1926.2	7.89868E-13
1927.4	8.09109E-13
1928.4	8.12535E-13
1929.6	8.14228E-13
1930.8	8.05925E-13
1932	7.92665E-13
1933.2	7.94556E-13
1934.4	7.72155E-13
1935.6	7.79845E-13
1936.8	7.61513E-13
1938	7.66527E-13
1939	7.60524E-13
1940.2	7.73586E-13
1941.4	7.66939E-13
1942.6	7.65347E-13
1943.8	7.60339E-13
1945	7.52075E-13
1946.2	7.54364E-13
1947.4	7.52854E-13
1948.6	7.5693E-13
1949.8	7.57856E-13
1950.8	7.61372E-13
1952	7.74861E-13
1953.2	7.7794E-13
1954.4	7.89934E-13
1955.6	7.91986E-13
1956.8	7.96628E-13
1958	7.80322E-13
1959.2	7.84356E-13
1960.4	7.86139E-13
1961.6	7.84409E-13
1962.6	7.81791E-13
1963.8	7.84321E-13
1965	7.80814E-13
1966.2	7.64657E-13
1967.4	7.50788E-13
1968.6	7.43995E-13
1969.8	7.50638E-13
1971	7.4969E-13
1972.2	7.38116E-13
1973.4	7.40354E-13
1974.4	7.42299E-13
1975.6	7.53467E-13
1976.8	7.56733E-13
1978	7.64704E-13
1979.2	7.6182E-13
1980.4	7.64723E-13
1981.6	7.68066E-13
1982.8	7.86478E-13
2000.4	7.40304E-13
2002.2	7.39361E-13
2004.2	7.27747E-13
2006	7.28524E-13
2009.8	7.26412E-13
2011.6	6.94811E-13
2013.6	6.84158E-13
2015.4	6.98079E-13
2017.2	7.01198E-13
2019.2	7.18035E-13
2021	7.14329E-13
2022.8	6.88302E-13
2024.8	6.7694E-13
2026.6	6.76146E-13
2028.4	7.08665E-13
2030.4	6.83436E-13
2032.2	6.65072E-13
2034	6.79132E-13
2036	6.92384E-13
2037.8	7.13003E-13
2039.6	7.41734E-13
2041.6	7.37055E-13
2043.4	7.31047E-13
2045.4	7.58548E-13
2047.2	7.58025E-13
2049	7.5174E-13
2051	7.88353E-13
2052.8	8.02297E-13
2054.6	7.7531E-13
2056.6	7.58927E-13
2058.4	7.66129E-13
2060.2	7.93576E-13
2062.2	8.22903E-13
2064	8.21964E-13
2065.8	8.02822E-13
2067.8	7.79812E-13
2069.6	7.73894E-13
2071.4	7.56507E-13
2073.4	7.76181E-13
2075.2	7.74983E-13
2077	7.47271E-13
2079	7.19877E-13
2080.8	7.09396E-13
2082.6	7.24751E-13
2084.6	7.00332E-13
2086.4	6.69301E-13
2088.4	6.56412E-13
2090.2	6.26846E-13
2092	6.26371E-13
2094	6.82193E-13
2095.8	7.28178E-13
2097.6	7.17065E-13
2099.6	6.98985E-13
2101.4	7.00685E-13
2103.2	7.17351E-13
2105.2	7.64405E-13
2107	7.91118E-13
2108.8	8.27642E-13
2110.8	8.66627E-13
2112.6	8.89226E-13
2114.4	8.7561E-13
2116.4	8.88716E-13
2118.2	9.16312E-13
2120	9.48389E-13
2122	9.50859E-13
2123.8	9.54464E-13
2125.6	9.92817E-13
2127.6	9.96373E-13
2129.4	1.00931E-12
2131.4	1.02514E-12
2133.2	9.9195E-13
2135	9.65026E-13
2137	9.64767E-13
2138.8	9.61203E-13
2140.6	9.72705E-13
2142.6	9.65147E-13
2144.4	9.35712E-13
2146.2	9.2353E-13
2148.2	9.29216E-13
2150	9.2391E-13
2151.8	9.0814E-13
2153.8	8.94604E-13
2155.6	8.98776E-13
2157.4	9.32772E-13
2159.4	9.66371E-13
2161.2	9.48753E-13
2163	9.31289E-13
2165	9.19318E-13
2166.8	9.33663E-13
2168.6	9.37583E-13
2170.6	9.41722E-13
2172.4	9.49798E-13
2174.4	9.29807E-13
2176.2	9.17203E-13
2178	9.11671E-13
2180	8.97982E-13
2181.8	8.99821E-13
2183.6	8.91008E-13
2185.6	8.91373E-13
2187.4	8.80867E-13
2189.2	8.7224E-13
2191.2	8.61589E-13
2193	8.69616E-13
2194.8	8.56705E-13
2196.8	8.28444E-13
2198.6	7.83249E-13
2200.4	8.05023E-13
2202.4	9.55087E-13
2204.2	6.18429E-13
2206	1.60394E-12
2208	1.52086E-12
2209.8	6.35041E-13
2211.8	1.09813E-12
2213.6	1.36972E-12
2215.4	7.24192E-13
2217.4	5.53978E-13
2219.2	1.04269E-12
2221	1.29195E-12
2223	9.57128E-13
2224.8	1.10371E-12
2226.6	1.03055E-12
2228.6	9.48996E-13
2230.4	1.36223E-12
2232.2	8.36527E-13
2234.2	1.2939E-12
2236	1.56762E-12
2237.8	1.3057E-12
2239.8	8.53416E-13
2241.6	1.09994E-12
2243.4	1.19247E-12
2245.4	1.26719E-12
2247.2	1.20554E-12
2249	1.06935E-12
2251	1.51898E-12
2252.8	1.70456E-12
2254.8	2.02826E-12
2256.6	1.57875E-12
2258.4	1.41413E-12
2260.4	2.2255E-12
2262.2	2.1094E-12
2264	1.61673E-12
2266	1.37893E-12
2267.8	1.6436E-12
2269.6	1.83022E-12
2271.6	1.68344E-12
2273.4	1.07088E-12
2275.2	1.39174E-12
2277.2	1.92146E-12
2279	1.62458E-12
2280.8	1.47059E-12
2282.8	1.65361E-12
2284.6	8.21769E-13
2286.4	1.2195E-12
2288.4	1.6222E-12
2290.2	1.09777E-12
2292	1.07423E-12
2294	1.49283E-12
2295.8	1.50379E-12
2297.8	1.46298E-12
2299.6	1.94624E-12
2301.4	2.13394E-12
2303.4	1.77585E-12
2305.2	1.295E-12
2307	1.1343E-12
2309	9.23975E-13
2310.8	1.31259E-12
2312.6	1.03256E-12
2314.6	1.23517E-12
2316.4	1.43917E-12
2318.2	1.36913E-12
2320.2	1.74213E-12
2322	1.38395E-12
2323.8	1.25581E-12
2325.8	1.6259E-12
2327.6	2.16452E-12
2329.4	2.1515E-12
2331.4	2.09442E-12
2333.2	2.49866E-12
2335	2.11139E-12
2337	1.90722E-12
2338.8	2.59113E-12
2340.8	2.80153E-12
2342.6	2.72684E-12
2344.4	3.05469E-12
2346.4	3.06323E-12
2348.2	2.59065E-12
2350	2.78091E-12
2352	2.6731E-12
2353.8	1.83949E-12
2355.6	2.06921E-12
2357.6	2.248E-12
2359.4	2.70721E-12
2361.2	3.30097E-12
2363.2	2.93096E-12
2365	2.98301E-12
2366.8	2.90626E-12
2368.8	3.01934E-12
2370.6	2.70448E-12
2372.4	2.22776E-12
2374.4	2.06255E-12
2376.2	2.16392E-12
2378	3.09134E-12
2380	3.78473E-12
2381.8	4.21187E-12
2383.8	4.0775E-12
2385.6	3.98597E-12
2387.4	2.97435E-12
2389.4	2.53184E-12
2391.2	2.4167E-12
2393	2.95901E-12
2395	3.48736E-12
2396.8	3.22927E-12
2398.6	3.34532E-12
2400.6	3.38139E-12
2402.4	3.30584E-12
2404.2	3.48232E-12
2406.2	3.35699E-12
2408	3.75499E-12
2409.8	4.4185E-12
2411.8	3.50675E-12
2413.6	3.18792E-12
2415.4	2.64416E-12
2417.4	1.64629E-12
2419.2	1.73431E-12
2421	2.03709E-12
2423	2.12602E-12
2424.8	2.21176E-12
2426.8	2.39234E-12
2428.6	2.46775E-12
2430.4	2.61798E-12
2432.4	2.55728E-12
2434.2	2.33804E-12
2436	2.76838E-12
2438	2.55579E-12
2439.8	2.61639E-12
2441.6	2.40764E-12
2443.6	2.13999E-12
2445.4	2.50463E-12
2447.2	2.71151E-12
2449.2	2.7052E-12
2451	2.44102E-12
2452.8	2.31789E-12
2454.8	2.26793E-12
2456.6	2.45273E-12
2458.4	2.52428E-12
2460.4	2.56351E-12
2462.2	2.6592E-12
2464	2.63579E-12
2466	2.73908E-12
2467.8	2.91924E-12
2469.8	2.71367E-12
2471.6	2.79272E-12
2473.4	2.47518E-12
2475.4	2.71025E-12
2477.2	2.89326E-12
2479	3.1074E-12
2481	3.49736E-12
2482.8	2.98427E-12
2484.6	2.5774E-12
2486.6	2.7706E-12
2488.4	2.76525E-12
2490.2	2.71639E-12
2492.2	3.28619E-12
2494	2.80306E-12
2495.8	2.32508E-12
2497.8	2.51898E-12
2499.6	2.26948E-12
2501.4	2.3224E-12
2503.4	2.24724E-12
2505.2	2.86674E-12
2507.2	3.22419E-12
2509	2.95507E-12
2510.8	2.46318E-12
2512.8	2.62431E-12
2514.6	2.91261E-12
2516.4	3.04311E-12
2518.4	2.69187E-12
2520.2	2.8707E-12
2522	3.19853E-12
2524	3.53798E-12
2525.8	3.94322E-12
2527.6	3.76053E-12
2529.6	4.09228E-12
2531.4	4.12445E-12
2533.2	3.63068E-12
2535.2	3.32098E-12
2537	3.96558E-12
2538.8	4.214E-12
2540.8	3.93176E-12
2542.6	3.4331E-12
2544.4	3.32783E-12
2546.4	3.36195E-12
2548.2	3.55956E-12
2550.2	3.59394E-12
2552	3.24766E-12
2553.8	2.52738E-12
2555.8	2.3451E-12
2557.6	2.43892E-12
2559.4	2.51689E-12
2561.4	2.64277E-12
2563.2	2.45014E-12
2565	2.69802E-12
2567	2.63035E-12
2568.8	2.45971E-12
2570.6	2.70103E-12
2572.6	3.09026E-12
2574.4	2.89332E-12
2576.2	2.59407E-12
2578.2	2.44788E-12
2580	2.2893E-12
2581.8	2.55601E-12
2583.8	3.18664E-12
2585.6	3.46205E-12
2587.4	3.06489E-12
2589.4	2.7325E-12
2591.2	2.70427E-12
2593.2	2.8441E-12
2595	3.10531E-12
2596.8	3.38265E-12
2598.8	3.62441E-12
2600.6	3.68241E-12
2602.4	3.23096E-12
2604.4	3.32016E-12
2606.2	3.80958E-12
2608	3.95413E-12
2610	4.26062E-12
2611.8	4.27853E-12
2613.6	3.72233E-12
2615.6	4.46664E-12
2617.4	3.7321E-12
2619.2	3.67358E-12
2621.2	3.74385E-12
2623	3.91342E-12
2624.8	3.94701E-12
2626.8	4.16609E-12
2628.6	4.36595E-12
2630.4	4.41255E-12
2632.4	4.18732E-12
2634.2	3.03807E-12
2636.2	2.31632E-12
2638	2.25123E-12
2639.8	2.27702E-12
2641.8	2.0773E-12
2643.6	2.12817E-12
2645.4	1.91768E-12
2647.4	1.85745E-12
2649.2	1.81306E-12
2651	1.90534E-12
2653	2.06378E-12
2654.8	2.18948E-12
2656.6	2.17137E-12
2658.6	2.1027E-12
2660.4	2.23822E-12
2662.2	2.62825E-12
2664.2	2.95726E-12
2666	2.6694E-12
2667.8	2.48716E-12
2669.8	2.53617E-12
2671.6	2.76855E-12
2673.4	2.45618E-12
2675.4	2.21505E-12
2677.2	2.29949E-12
2679.2	2.56662E-12
2681	2.6762E-12
2682.8	2.34454E-12
2684.8	2.31812E-12
2686.6	2.68675E-12
2688.4	2.6915E-12
2690.4	2.57904E-12
2692.2	2.6864E-12
2694	2.62107E-12
2696	2.63014E-12
2697.8	2.89377E-12
2699.6	2.60056E-12
2701.6	2.70299E-12
2703.4	2.95525E-12
2705.2	3.10723E-12
2707.2	2.92854E-12
2709	2.95327E-12
2710.8	2.95939E-12
2712.8	3.32269E-12
2714.6	3.24096E-12
2716.4	3.02378E-12
2718.4	2.89922E-12
2720.2	2.94598E-12
2722.2	3.17713E-12
2724	3.01859E-12
2725.8	3.21801E-12
2727.8	3.6047E-12
2729.6	3.62354E-12
2731.4	3.56842E-12
2733.4	3.69644E-12
2735.2	3.81147E-12
2737	4.32717E-12
2739	4.44985E-12
2740.8	4.31763E-12
2742.6	4.08907E-12
2744.6	4.40622E-12
2746.4	4.52724E-12
2748.2	4.37024E-12
2750.2	4.13617E-12
2752	4.343E-12
2753.8	4.21825E-12
2755.8	3.9865E-12
2757.6	3.88534E-12
2759.4	3.8355E-12
2761.4	3.84542E-12
2763.2	3.69935E-12
2765.2	4.03484E-12
2767	3.62506E-12
2768.8	3.85434E-12
2770.8	3.39851E-12
2772.6	3.28645E-12
2774.4	3.28458E-12
2776.4	3.1212E-12
2778.2	3.21938E-12
2780	3.53463E-12
2782	3.55358E-12
2783.8	3.29811E-12
2785.6	3.32141E-12
2787.6	3.64917E-12
2789.4	4.03636E-12
2791.1	3.57173E-12
2791.2	3.57173E-12
2792.9	3.57173E-12
2793.2	3.57173E-12
2794.6	3.66898E-12
2795	3.66898E-12
2796.4	8.35555E-12
2796.8	3.66898E-12
2798.1	3.66898E-12
2798.8	3.66898E-12
2799.9	3.66898E-12
2800.6	3.66898E-12
2801.6	3.66898E-12
2802.4	3.66898E-12
2803.4	6.67587E-12
2804.4	3.66898E-12
2805.1	3.66898E-12
2806.2	3.57173E-12
2806.9	3.57173E-12
2808.2	3.57173E-12
2808.6	3.57173E-12
2810	3.13251E-12
2811.8	3.00214E-12
2813.8	2.8789E-12
2815.6	2.81955E-12
2817.4	2.599E-12
2819.4	3.15166E-12
2821.2	3.1456E-12
2823	3.12873E-12
2825	3.09994E-12
2826.8	3.08378E-12
2828.6	3.0736E-12
2830.6	3.05177E-12
2832.4	2.95943E-12
2834.2	2.83749E-12
2836.2	2.746E-12
2838	2.73092E-12
2839.8	2.75949E-12
2841.8	2.80709E-12
2843.6	2.84832E-12
2845.4	2.87214E-12
2847.4	2.87192E-12
2849.2	2.86766E-12
2851.2	2.87279E-12
2853	2.87266E-12
2854.8	2.87623E-12
2856.8	2.87795E-12
2858.6	2.87815E-12
2860.4	2.86584E-12
2862.4	2.87003E-12
2864.2	2.87587E-12
2866	2.85425E-12
2868	2.82868E-12
2869.8	2.83706E-12
2871.6	2.923E-12
2873.6	3.03682E-12
2875.4	3.11934E-12
2877.2	3.13848E-12
2879.2	3.1109E-12
2881	3.06628E-12
2882.8	3.08985E-12
2884.8	2.77827E-12
2886.6	2.82125E-12
2888.4	2.84977E-12
2890.4	2.86778E-12
2892.2	2.70849E-12
2894.2	2.63103E-12
2896	2.68436E-12
2897.8	2.56845E-12
2899.8	2.68692E-12
2901.6	2.5265E-12
2903.4	2.29828E-12
2905.4	2.29083E-12
2907.2	2.46046E-12
2909	2.6304E-12
2911	2.68617E-12
2912.8	2.54163E-12
2914.6	2.70475E-12
2916.6	2.72025E-12
2918.4	2.71813E-12
2920.2	2.62033E-12
2922.2	2.93198E-12
2924	3.23131E-12
2925.8	3.41289E-12
2927.8	3.50331E-12
2929.6	3.42522E-12
2931.4	3.19792E-12
2933.4	3.15943E-12
2935.2	3.25618E-12
2937.2	3.11114E-12
2939	3.27274E-12
2940.8	3.29467E-12
2942.8	3.24201E-12
2944.6	3.26368E-12
2946.4	3.28994E-12
2948.4	3.2817E-12
2950.2	3.30844E-12
2952	3.26647E-12
2954	3.28688E-12
2955.8	3.08181E-12
2957.6	3.17369E-12
2959.6	3.23679E-12
2961.4	3.34106E-12
2963.2	3.31369E-12
2965.2	3.19235E-12
2967	3.21609E-12
2968.8	3.05527E-12
2970.8	3.22629E-12
2972.6	3.148E-12
2974.4	3.16818E-12
2976.4	3.13204E-12
2978.2	2.9763E-12
2980.2	2.99424E-12
2982	3.35708E-12
2983.8	3.43552E-12
2985.8	3.21055E-12
2987.6	2.92472E-12
2989.4	2.654E-12
2991.4	2.64846E-12
2993.2	2.64351E-12
2995	2.63063E-12
2997	2.73684E-12
2998.8	3.10245E-12
3000.6	3.17261E-12
3002.6	3.08201E-12
3004.4	2.92134E-12
3006.2	2.49748E-12
3008.2	2.33132E-12
3010	2.18876E-12
3011.8	2.28793E-12
3013.8	2.57552E-12
3015.6	2.77449E-12
3017.4	2.82803E-12
3019.4	2.74403E-12
3021.2	2.83306E-12
3023.2	2.83756E-12
3025	2.92387E-12
3026.8	2.88575E-12
3028.8	2.85254E-12
3030.6	2.70881E-12
3032.4	2.68565E-12
3034.4	2.82886E-12
3036.2	2.83651E-12
3038	2.89505E-12
3040	2.86006E-12
3041.8	2.79678E-12
3043.6	2.72521E-12
3045.6	2.67269E-12
3047.4	2.62857E-12
3049.2	2.66053E-12
3051.2	2.7577E-12
3053	2.87895E-12
3054.8	2.95802E-12
3056.8	2.83364E-12
3058.6	2.77574E-12
3060.4	2.74821E-12
3062.4	2.8395E-12
3064.2	2.99759E-12
3066.2	2.95776E-12
3068	3.0148E-12
3069.8	2.96528E-12
3071.8	2.94301E-12
3073.6	2.84165E-12
3075.4	2.75939E-12
3077.4	2.7028E-12
3079.2	2.86009E-12
3081	2.82718E-12
3083	2.69532E-12
3084.8	2.59242E-12
3086.6	2.47824E-12
3088.6	2.63257E-12
3090.4	2.94318E-12
3092.2	3.29088E-12
3094.2	3.30995E-12
3096	3.24379E-12
3097.8	3.206E-12
3099.8	3.15689E-12
3101.6	3.10259E-12
3103.4	2.99435E-12
3105.4	2.92595E-12
3107.2	2.946E-12
3109.2	3.0122E-12
3111	2.92425E-12
3112.8	2.66564E-12
3114.8	2.73948E-12
3116.6	2.7121E-12
3118.4	2.73196E-12
3120.4	2.58501E-12
3122.2	2.51726E-12
3124	2.55392E-12
3126	2.57991E-12
3127.8	2.44936E-12
3129.6	2.44341E-12
3131.6	2.38277E-12
3133.4	2.42764E-12
3135.2	2.36846E-12
3137.2	2.23674E-12
3139	2.23332E-12
3140.8	2.13586E-12
3142.8	2.1371E-12
3144.6	2.11156E-12
3146.4	1.98638E-12
3148.4	2.16559E-12
3150.2	2.4938E-12
3152.2	2.87738E-12
3154	2.98864E-12
3155.8	2.76857E-12
3157.8	2.91111E-12
3159.6	2.8231E-12
3161.4	2.69848E-12
3163.4	2.52381E-12
3165.2	2.44428E-12
3167	2.39167E-12
3169	2.55105E-12
3170.8	2.54398E-12
3172.6	2.53269E-12
3174.6	2.60018E-12
3176.4	2.8453E-12
3178.2	3.11298E-12
3180.2	3.13785E-12
3182	3.23597E-12
3183.8	3.00272E-12
3185.8	2.76467E-12
3187.6	2.83439E-12
3189.4	2.77564E-12
3191.4	2.9908E-12
3193.2	2.84526E-12
3195.2	2.7924E-12
3197	2.56404E-12
3198.8	2.48416E-12
3200.8	2.58853E-12
3202.6	2.67885E-12
3204.4	2.76314E-12
3206.4	2.7153E-12
3208.2	2.56882E-12
3210	2.47884E-12
3212	2.39193E-12
3213.8	2.38227E-12
3215.6	2.5171E-12
3217.6	2.53785E-12
3219.4	2.37946E-12
3221.2	2.39962E-12
3223.2	2.48391E-12
3225	2.69975E-12
3226.8	2.86104E-12
3228.8	2.86972E-12
3230.6	2.86391E-12
3232.4	2.77269E-12
3234.4	2.70549E-12
3236.2	2.40366E-12
3238.2	2.35516E-12
3240	2.23622E-12
3241.8	2.43463E-12
3243.8	2.62588E-12
3245.6	2.7433E-12
3247.4	2.71263E-12
3249.4	2.69071E-12
3251.2	2.97234E-12
3253	3.25E-12
3255	3.69667E-12
3256.8	3.74333E-12
3258.6	3.45683E-12
3260.6	3.47321E-12
3262.4	3.65351E-12
3264.2	3.66684E-12
3266.2	3.78132E-12
3268	4.11841E-12
3269.8	4.39295E-12
3271.8	4.48405E-12
3273.6	4.0475E-12
3275.4	3.75041E-12
3277.4	3.95034E-12
3279.2	3.69816E-12
3281.2	3.49246E-12
3283	3.51316E-12
3284.8	3.56703E-12
3286.8	3.69008E-12
3288.6	3.67917E-12
3290.4	3.66045E-12
3292.4	3.8621E-12
3294.2	4.0146E-12
3296	4.22464E-12
3298	4.22534E-12
3299.8	4.5147E-12
3301.6	1.86291E-12
3303.6	1.67973E-12
3305.6	1.65E-12
3307.6	1.65E-12
3309.6	1.65E-12
3311.6	1.65E-12
3313.6	1.65E-12
3315.6	1.65E-12
3317.6	1.65E-12
3319.6	1.65E-12
3321.6	1.65E-12
3323.6	1.65E-12
3325.6	1.65E-12
3327.6	1.65E-12
3329.6	1.65E-12
3331.6	1.65E-12
3333.6	1.65E-12
3335.6	1.65E-12
3337.6	1.65E-12
3339.6	1.65E-12
3341.6	1.65E-12
3343.6	1.65E-12
3345.6	1.65E-12
3347.6	1.65E-12
3349.6	1.65E-12
3351.6	1.65E-12
3353.6	1.65E-12
3355.6	1.65E-12
3357.6	1.65E-12
3359.6	1.65E-12
3361.6	1.65E-12
3363.6	1.65E-12
3365.6	1.65E-12
3367.6	1.65E-12
3369.6	1.65E-12
3371.6	1.65E-12
3373.6	1.65E-12
3375.6	1.65E-12
3377.6	1.65E-12
3379.6	1.65E-12
3381.6	1.65E-12
3383.6	1.65E-12
3385.6	1.65E-12
3387.6	1.65E-12
3389.6	1.65E-12
3391.6	1.65E-12
3393.6	1.65E-12
3395.6	1.65E-12
3397.6	1.65E-12
3399.6	1.65E-12
3401.6	1.65E-12
3403.6	1.65E-12
3405.6	1.65E-12
3407.6	1.65E-12
3409.6	1.65E-12
3411.6	1.65E-12
3413.6	1.65E-12
3415.6	1.65E-12
3417.6	1.65E-12
3419.6	1.65E-12
3421.6	1.65E-12
3423.6	1.65E-12
3425.6	1.65E-12
3427.6	1.65E-12
3429.6	1.65E-12
3431.6	1.65E-12
3433.6	1.65E-12
3435.6	1.65E-12
3437.6	1.65E-12
3439.6	1.65E-12
3441.6	1.65E-12
3443.6	1.65E-12
3445.6	1.65E-12
3447.6	1.65E-12
3449.6	1.65E-12
3451.6	1.65E-12
3453.6	1.65E-12
3455.6	1.65E-12
3457.6	1.65E-12
3459.6	1.65E-12
3461.6	1.65E-12
3463.6	1.65E-12
3465.6	1.65E-12
3467.6	1.65E-12
3469.6	1.65E-12
3471.6	1.65E-12
3473.6	1.65E-12
3475.6	1.65E-12
3477.6	1.65E-12
3479.6	1.65E-12
3481.6	1.65E-12
3483.6	1.65E-12
3485.6	1.65E-12
3487.6	1.65E-12
3489.6	1.65E-12
3491.6	1.65E-12
3493.6	1.65E-12
3495.6	1.65E-12
3497.6	1.65E-12
3499.6	1.65E-12
3501.6	1.65E-12
3503.6	1.65E-12
3505.6	1.65E-12
3507.6	1.65E-12
3509.6	1.65E-12
3511.6	1.65E-12
3513.6	1.65E-12
3515.6	1.65E-12
3517.6	1.65E-12
3519.6	1.65E-12
3521.6	1.65E-12
3523.6	1.65E-12
3525.6	1.65E-12
3527.6	1.65E-12
3529.6	1.65E-12
3531.6	1.65E-12
3533.6	1.65E-12
3535.6	1.65E-12
3537.6	1.65E-12
3539.6	1.65E-12
3541.6	1.65E-12
3543.6	1.65E-12
3545.6	1.65E-12
3547.6	1.65E-12
3550.04	1.616E-12
3551.78	2.664E-12
3553.52	2.289E-12
3555.25	2.301E-12
3556.99	1.982E-12
3558.73	2.498E-12
3560.47	1.724E-12
3562.21	2.081E-12
3563.95	2.039E-12
3565.69	2.179E-12
3567.42	2.42E-12
3569.16	2.093E-12
3570.9	2.347E-12
3572.64	2.095E-12
3574.38	2.386E-12
3576.12	1.869E-12
3577.86	2.034E-12
3579.59	1.945E-12
3581.33	2.212E-12
3583.07	1.881E-12
3584.81	2.184E-12
3586.55	2.474E-12
3588.29	2.217E-12
3590.03	2.099E-12
3591.77	2.218E-12
3593.5	1.614E-12
3595.24	2.09E-12
3596.98	2.179E-12
3598.72	1.941E-12
3600.46	2.007E-12
3602.2	1.535E-12
3603.94	2.699E-12
3605.68	1.867E-12
3607.42	2.014E-12
3609.15	2.39E-12
3610.89	1.619E-12
3612.63	1.898E-12
3614.37	2.25E-12
3616.11	1.928E-12
3617.85	2.218E-12
3619.59	1.842E-12
3621.33	2.284E-12
3623.07	1.535E-12
3624.8	1.849E-12
3626.54	1.893E-12
3628.28	2.044E-12
3630.02	1.902E-12
3631.76	2.211E-12
3633.5	1.935E-12
3635.24	2.203E-12
3636.98	2.157E-12
3638.72	1.863E-12
3640.46	1.896E-12
3642.2	1.823E-12
3643.94	2.254E-12
3645.67	2.064E-12
3647.41	1.926E-12
3649.15	2.221E-12
3650.89	1.945E-12
3652.63	2.057E-12
3654.37	1.928E-12
3656.11	2.036E-12
3657.85	1.724E-12
3659.59	1.958E-12
3661.33	2.05E-12
3663.07	2.33E-12
3664.81	2.269E-12
3666.55	1.98E-12
3668.29	2.029E-12
3670.02	2.275E-12
3671.76	1.783E-12
3673.5	2.176E-12
3675.24	1.993E-12
3676.98	2.066E-12
3678.72	2.248E-12
3680.46	2.012E-12
3682.2	2.322E-12
3683.94	2.114E-12
3685.68	2.318E-12
3687.42	2.365E-12
3689.16	2.097E-12
3690.9	2.085E-12
3692.64	2.161E-12
3694.38	1.934E-12
3696.12	2.128E-12
3697.86	2.19E-12
3699.6	1.914E-12
3701.34	1.558E-12
3703.08	1.941E-12
3704.82	2.572E-12
3706.56	2.473E-12
3708.3	1.926E-12
3710.03	2.045E-12
3711.77	2.148E-12
3713.51	2.047E-12
3715.25	1.823E-12
3716.99	1.828E-12
3718.73	1.816E-12
3720.47	2.233E-12
3722.21	2.73E-12
3723.95	2.317E-12
3725.69	1.992E-12
3727.43	2.054E-12
3729.17	1.926E-12
3730.91	1.915E-12
3732.65	2.067E-12
3734.39	2.724E-12
3736.13	2.597E-12
3737.87	2.49E-12
3739.61	1.694E-12
3741.35	1.839E-12
3743.09	1.795E-12
3744.83	1.936E-12
3746.57	2.039E-12
3748.31	2.124E-12
3750.05	2.811E-12
3751.79	2.533E-12
3753.53	2.047E-12
3755.27	1.56E-12
3757.01	1.605E-12
3758.75	1.767E-12
3760.49	1.783E-12
3762.23	1.841E-12
3763.97	1.579E-12
3765.71	1.744E-12
3767.45	2.116E-12
3769.19	2.193E-12
3770.93	3.104E-12
3772.67	2.777E-12
3774.41	2.292E-12
3776.15	1.913E-12
3777.89	1.945E-12
3779.63	1.747E-12
3781.37	1.578E-12
3783.11	1.683E-12
3784.86	1.719E-12
3786.6	1.794E-12
3788.34	1.883E-12
3790.08	1.747E-12
3791.82	1.838E-12
3793.56	1.952E-12
3795.3	2.381E-12
3797.04	3.258E-12
3798.78	4.062E-12
3800.52	2.822E-12
3802.26	2.18E-12
3804	1.908E-12
3805.74	1.836E-12
3807.48	1.748E-12
3809.22	1.612E-12
3810.96	1.584E-12
3812.7	1.476E-12
3814.44	1.575E-12
3816.18	1.69E-12
3817.92	1.621E-12
3819.66	1.7E-12
3821.4	1.774E-12
3823.15	1.541E-12
3824.89	1.725E-12
3826.63	1.866E-12
3828.37	1.966E-12
3830.11	2.092E-12
3831.85	2.345E-12
3833.59	2.777E-12
3835.33	4.186E-12
3837.07	3.892E-12
3838.81	2.842E-12
3840.55	2.223E-12
3842.29	1.982E-12
3844.03	1.757E-12
3845.77	1.676E-12
3847.51	1.533E-12
3849.26	1.457E-12
3851	1.637E-12
3852.74	1.453E-12
3854.48	1.364E-12
3856.22	1.623E-12
3857.96	1.563E-12
3859.7	1.634E-12
3861.44	1.502E-12
3863.18	1.413E-12
3864.92	1.435E-12
3866.66	1.515E-12
3868.41	1.442E-12
3870.15	1.419E-12
3871.89	1.536E-12
3873.63	1.59E-12
3875.37	1.436E-12
3877.11	1.51E-12
3878.85	1.783E-12
3880.59	1.764E-12
3882.33	1.675E-12
3884.07	2.002E-12
3885.82	2.342E-12
3887.56	3.259E-12
3889.3	5.302E-12
3891.04	3.969E-12
3892.78	2.66E-12
3894.52	2.126E-12
3896.26	1.992E-12
3898	1.76E-12
3899.74	1.666E-12
3901.49	1.649E-12
3903.23	1.502E-12
3904.97	1.626E-12
3906.71	1.828E-12
3908.45	1.5E-12
3910.19	1.408E-12
3911.93	1.401E-12
3913.67	1.488E-12
3915.42	1.461E-12
3917.16	1.488E-12
3918.9	1.417E-12
3920.64	1.527E-12
3922.38	1.462E-12
3924.12	1.481E-12
3925.86	1.414E-12
3927.61	1.469E-12
3929.35	1.599E-12
3931.09	1.685E-12
3932.83	2.375E-12
3934.57	4.713E-12
3936.31	1.921E-12
3938.05	1.589E-12
3939.8	1.51E-12
3941.54	1.407E-12
3943.28	1.48E-12
3945.02	1.555E-12
3946.76	1.412E-12
3948.5	1.444E-12
3950.25	1.445E-12
3951.99	1.444E-12
3953.73	1.461E-12
3955.47	1.497E-12
3957.21	1.599E-12
3958.95	1.522E-12
3960.7	1.621E-12
3962.44	1.812E-12
3964.18	1.985E-12
3965.92	2.304E-12
3967.66	3.574E-12
3969.4	6.78E-12
3971.15	6.084E-12
3972.89	3.475E-12
3974.63	2.634E-12
3976.37	2.125E-12
3978.11	1.931E-12
3979.85	1.681E-12
3981.6	1.589E-12
3983.34	1.564E-12
3985.08	1.489E-12
3986.82	1.539E-12
3988.56	1.438E-12
3990.31	1.399E-12
3992.05	1.443E-12
3993.79	1.419E-12
3995.53	1.373E-12
3997.27	1.472E-12
3999.02	1.423E-12
4000.76	1.371E-12
4002.5	1.388E-12
4004.24	1.456E-12
4005.98	1.572E-12
4007.73	1.477E-12
4009.47	1.413E-12
4011.21	1.429E-12
4012.95	1.437E-12
4014.69	1.47E-12
4016.44	1.444E-12
4018.18	1.465E-12
4019.92	1.44E-12
4021.66	1.399E-12
4023.4	1.46E-12
4025.15	1.561E-12
4026.89	1.836E-12
4028.63	1.527E-12
4030.37	1.462E-12
4032.12	1.5E-12
4033.86	1.474E-12
4035.6	1.442E-12
4037.34	1.452E-12
4039.08	1.438E-12
4040.83	1.445E-12
4042.57	1.452E-12
4044.31	1.503E-12
4046.05	1.606E-12
4047.8	1.442E-12
4049.54	1.45E-12
4051.28	1.432E-12
4053.02	1.466E-12
4054.77	1.46E-12
4056.51	1.483E-12
4058.25	1.534E-12
4059.99	1.46E-12
4061.74	1.442E-12
4063.48	1.541E-12
4065.22	1.456E-12
4066.96	1.477E-12
4068.71	1.523E-12
4070.45	1.446E-12
4072.19	1.55E-12
4073.93	1.438E-12
4075.68	1.483E-12
4077.42	1.631E-12
4079.16	1.623E-12
4080.9	1.474E-12
4082.65	1.448E-12
4084.39	1.534E-12
4086.13	1.542E-12
4087.87	1.495E-12
4089.62	1.54E-12
4091.36	1.569E-12
4093.1	1.682E-12
4094.84	1.868E-12
4096.59	2.199E-12
4098.33	2.748E-12
4100.07	3.802E-12
4101.82	6.723E-12
4103.56	5.441E-12
4105.3	3.276E-12
4107.04	2.465E-12
4108.79	2.092E-12
4110.53	1.871E-12
4112.27	1.723E-12
4114.02	1.615E-12
4115.76	1.544E-12
4117.5	1.476E-12
4119.24	1.548E-12
4120.99	1.53E-12
4122.73	1.518E-12
4124.47	1.492E-12
4126.22	1.49E-12
4127.96	1.52E-12
4129.7	1.456E-12
4131.44	1.467E-12
4133.19	1.545E-12
4134.93	1.483E-12
4136.67	1.454E-12
4138.42	1.415E-12
4140.16	1.45E-12
4141.9	1.431E-12
4143.65	1.562E-12
4145.39	1.532E-12
4147.13	1.466E-12
4148.88	1.437E-12
4150.62	1.443E-12
4152.36	1.487E-12
4154.11	1.533E-12
4155.85	1.486E-12
4157.59	1.495E-12
4159.34	1.483E-12
4161.08	1.477E-12
4162.82	1.441E-12
4164.56	1.464E-12
4166.31	1.426E-12
4168.05	1.501E-12
4169.79	1.43E-12
4171.54	1.49E-12
4173.28	1.55E-12
4175.02	1.485E-12
4176.77	1.478E-12
4178.51	1.503E-12
4180.25	1.515E-12
4182	1.486E-12
4183.74	1.473E-12
4185.49	1.449E-12
4187.23	1.472E-12
4188.97	1.479E-12
4190.72	1.418E-12
4192.46	1.464E-12
4194.2	1.391E-12
4195.95	1.47E-12
4197.69	1.471E-12
4199.43	1.537E-12
4201.18	1.456E-12
4202.92	1.474E-12
4204.66	1.454E-12
4206.41	1.415E-12
4208.15	1.439E-12
4209.89	1.407E-12
4211.64	1.427E-12
4213.38	1.386E-12
4215.13	1.446E-12
4216.87	1.532E-12
4218.61	1.413E-12
4220.36	1.408E-12
4222.1	1.342E-12
4223.84	1.344E-12
4225.59	1.386E-12
4227.33	1.623E-12
4229.08	1.348E-12
4230.82	1.287E-12
4232.56	1.386E-12
4234.31	1.582E-12
4236.05	1.397E-12
4237.79	1.418E-12
4239.54	1.407E-12
4241.28	1.383E-12
4243.03	1.325E-12
4244.77	1.361E-12
4246.51	1.432E-12
4248.26	1.442E-12
4250	1.421E-12
4251.75	1.503E-12
4253.49	1.364E-12
4255.23	1.43E-12
4256.98	1.362E-12
4258.72	1.363E-12
4260.47	1.498E-12
4262.21	1.396E-12
4263.95	1.383E-12
4265.7	1.354E-12
4267.44	1.379E-12
4269.19	1.391E-12
4270.93	1.435E-12
4272.67	1.492E-12
4274.42	1.396E-12
4276.16	1.385E-12
4277.91	1.335E-12
4279.65	1.407E-12
4281.39	1.424E-12
4283.14	1.427E-12
4284.88	1.371E-12
4286.63	1.401E-12
4288.37	1.38E-12
4290.12	1.438E-12
4291.86	1.41E-12
4293.6	1.423E-12
4295.35	1.486E-12
4297.09	1.411E-12
4298.84	1.411E-12
4300.58	1.522E-12
4302.33	1.406E-12
4304.07	1.449E-12
4305.81	1.403E-12
4307.56	1.443E-12
4309.3	1.478E-12
4311.05	1.396E-12
4312.79	1.458E-12
4314.54	1.475E-12
4316.28	1.429E-12
4318.03	1.363E-12
4319.77	1.408E-12
4321.51	1.432E-12
4323.26	1.448E-12
4325	1.502E-12
4326.75	1.595E-12
4328.49	1.545E-12
4330.24	1.619E-12
4331.98	1.752E-12
4333.73	1.925E-12
4335.47	2.244E-12
4337.22	2.872E-12
4338.96	4.189E-12
4340.71	7.631E-12
4342.45	5.469E-12
4344.19	3.309E-12
4345.94	2.477E-12
4347.68	2.043E-12
4349.43	1.842E-12
4351.17	1.748E-12
4352.92	1.754E-12
4354.66	1.506E-12
4356.41	1.509E-12
4358.15	1.489E-12
4359.9	1.436E-12
4361.64	1.439E-12
4363.39	1.411E-12
4365.13	1.42E-12
4366.88	1.431E-12
4368.62	1.424E-12
4370.37	1.438E-12
4372.11	1.433E-12
4373.86	1.444E-12
4375.6	1.456E-12
4377.35	1.422E-12
4379.09	1.391E-12
4380.84	1.396E-12
4382.58	1.41E-12
4384.33	1.594E-12
4386.07	1.521E-12
4387.82	1.548E-12
4389.56	1.49E-12
4391.31	1.435E-12
4393.05	1.441E-12
4394.8	1.473E-12
4396.54	1.469E-12
4398.29	1.425E-12
4400.03	1.444E-12
4401.78	1.495E-12
4403.52	1.415E-12
4405.27	1.506E-12
4407.01	1.433E-12
4408.76	1.424E-12
4410.5	1.445E-12
4412.25	1.438E-12
4413.99	1.428E-12
4415.74	1.544E-12
4417.48	1.579E-12
4419.23	1.51E-12
4420.97	1.435E-12
4422.72	1.44E-12
4424.46	1.468E-12
4426.21	1.417E-12
4427.95	1.471E-12
4429.7	1.435E-12
4431.45	1.486E-12
4433.19	1.468E-12
4434.94	1.442E-12
4436.68	1.429E-12
4438.43	1.444E-12
4440.17	2.026E-12
