	915 s
A	erg/s/cm2/A
1003.6	4.66099E-14
1007	2.23173E-13
1008.2	3.56591E-13
1011.8	3.89958E-13
1013	8.77577E-14
1015.4	2.34447E-13
1016.6	4.11829E-13
1017.6	1.26764E-13
1018.8	1.08471E-13
1023.6	6.74452E-14
1024.8	1.47411E-14
1026	1.15761E-13
1027.2	1.03443E-13
1029.4	3.77355E-14
1030.6	1.64386E-13
1035.4	1.85941E-13
1036.6	9.66013E-14
1044.8	1.16175E-13
1046	3.75544E-14
1048.4	7.37876E-14
1050.8	3.1966E-13
1052	3.05302E-13
1053	7.10497E-14
1056.6	3.7964E-13
1057.8	2.62706E-13
1063.8	2.87169E-15
1069.6	1.16841E-13
1072	2.26575E-14
1076.6	8.32194E-15
1079	4.28648E-14
1080.2	7.14304E-14
1083.8	7.45262E-14
1086.2	3.5937E-14
1088.4	8.17351E-14
1089.6	3.23753E-13
1094.4	4.81297E-14
1095.6	1.58119E-13
1098	3.17349E-14
1099.2	7.29388E-14
1103.8	1.65621E-13
1105	2.82256E-14
1106.2	2.27746E-14
1108.6	6.49215E-14
1112	8.25671E-14
1113.2	1.01257E-13
1114.4	5.8762E-15
1115.6	1.81822E-13
1116.8	2.27186E-13
1118	1.80438E-13
1119.2	1.92035E-13
1120.4	2.17298E-13
1121.6	5.69589E-14
1122.6	7.78855E-14
1125	5.21272E-14
1129.8	3.15185E-14
1132.2	2.71124E-14
1133.4	1.34289E-14
1134.4	2.61398E-13
1135.6	9.49924E-14
1136.8	2.07422E-13
1138	9.09847E-14
1139.2	1.99116E-13
1140.4	1.98611E-13
1141.6	4.63893E-13
1142.8	2.72203E-13
1144	4.12906E-13
1145.2	4.49767E-13
1146.2	6.97516E-13
1147.4	5.76986E-13
1148.6	8.67288E-13
1149.8	8.69733E-13
1151	5.78998E-13
1152.2	6.25248E-13
1153.4	6.38444E-13
1154.6	6.04445E-13
1155.8	6.09535E-13
1157	8.04322E-13
1158	9.15483E-13
1159.2	8.29313E-13
1160.4	1.18232E-12
1161.6	1.73645E-12
1162.8	1.20915E-12
1164	8.44151E-13
1165.2	7.75691E-13
1166.4	8.72721E-13
1167.6	8.02089E-13
1168.8	8.66728E-13
1169.8	8.79992E-13
1171	1.15986E-12
1172.2	1.90373E-12
1173.4	2.7591E-12
1174.6	3.07587E-12
1175.8	3.09707E-12
1177	2.31156E-12
1178.2	1.55767E-12
1179.4	1.14995E-12
1180.6	9.32966E-13
1181.6	8.13958E-13
1182.8	7.39976E-13
1184	8.03663E-13
1185.2	7.45252E-13
1186.4	6.92197E-13
1187.6	8.20243E-13
1188.8	7.91459E-13
1190	7.5104E-13
1191.2	7.92464E-13
1192.4	7.92464E-13
1193.4	7.92464E-13
1194.6	7.92464E-13
1195.8	7.92464E-13
1197	7.92464E-13
1198.2	7.92464E-13
1199.4	7.92464E-13
1200.91	7.92464E-13
1202.61	7.92464E-13
1204.41	7.90027E-13
1206.11	4.63207E-12
1207.91	7.90027E-13
1209.61	7.90027E-13
1211.41	7.90027E-13
1213.11	2.03251E-12
1214.91	2.55391E-11
1216.61	2.82942E-11
1218.41	3.29721E-12
1220.11	7.92464E-13
1221.91	7.92464E-13
1223.61	7.92464E-13
1225.41	7.92464E-13
1227.11	7.92464E-13
1228.91	7.92464E-13
1231.2	8.26056E-13
1232.4	8.46111E-13
1233.6	8.63454E-13
1234.8	8.37452E-13
1236	9.90826E-13
1237.2	1.09327E-12
1238.4	1.02041E-12
1239.4	1.0553E-12
1240.6	1.07854E-12
1241.8	1.05478E-12
1243	9.69098E-13
1244.2	1.0225E-12
1245.4	1.04707E-12
1246.6	1.06133E-12
1247.8	1.09743E-12
1249	9.72368E-13
1250.2	9.30851E-13
1251.2	8.98068E-13
1252.4	8.60985E-13
1253.6	8.5695E-13
1254.8	8.34378E-13
1256	9.58114E-13
1257.2	8.89627E-13
1258.4	8.11231E-13
1259.6	8.18511E-13
1260.8	8.75906E-13
1262	1.00474E-12
1263	9.56511E-13
1264.2	9.51038E-13
1265.4	8.87481E-13
1266.6	9.15911E-13
1267.8	9.97428E-13
1269	9.57508E-13
1270.2	9.29509E-13
1271.4	8.69155E-13
1272.6	8.80023E-13
1273.8	9.9483E-13
1274.8	9.71931E-13
1276	8.8081E-13
1277.2	9.30156E-13
1278.4	8.86275E-13
1279.6	9.95848E-13
1280.8	8.85634E-13
1282	9.4214E-13
1283.2	9.27962E-13
1284.4	9.21744E-13
1285.6	9.86067E-13
1286.6	9.97643E-13
1287.8	1.07223E-12
1289	9.83986E-13
1290.2	1.15591E-12
1291.4	1.01169E-12
1292.6	1.05317E-12
1293.8	1.12035E-12
1295	1.22625E-12
1296.2	1.33992E-12
1297.4	1.44227E-12
1298.4	1.38903E-12
1299.6	1.2314E-12
1300.8	1.31203E-12
1302	1.30263E-12
1303.2	1.37302E-12
1304.4	1.17322E-12
1305.6	1.04302E-12
1306.8	1.06635E-12
1308	9.96783E-13
1309.2	8.84097E-13
1310.2	1.01125E-12
1311.4	1.12665E-12
1312.6	9.962E-13
1313.8	9.84575E-13
1315	9.64903E-13
1316.2	9.79127E-13
1317.4	9.71785E-13
1318.6	8.82538E-13
1319.8	1.00136E-12
1320.8	8.99055E-13
1322	9.25366E-13
1323.2	9.95248E-13
1324.4	1.01016E-12
1325.6	1.00584E-12
1326.8	9.94406E-13
1328	8.89017E-13
1329.2	1.0226E-12
1330.4	1.0124E-12
1331.6	1.08929E-12
1332.6	1.44862E-12
1333.8	1.68562E-12
1335	1.84169E-12
1336.2	1.82309E-12
1337.4	1.65409E-12
1338.6	1.30696E-12
1339.8	1.05548E-12
1341	8.60323E-13
1342.2	9.87052E-13
1343.4	1.02459E-12
1344.4	9.29882E-13
1345.6	9.95683E-13
1346.8	9.09488E-13
1348	9.64333E-13
1349.2	8.85614E-13
1350.4	8.16107E-13
1351.6	8.84235E-13
1352.8	9.07407E-13
1354	9.6083E-13
1355.2	1.02169E-12
1356.2	9.59471E-13
1357.4	8.76231E-13
1358.6	8.74614E-13
1359.8	8.9233E-13
1361	9.0612E-13
1362.2	8.76989E-13
1363.4	9.26586E-13
1364.6	9.76762E-13
1365.8	9.98538E-13
1367	9.58233E-13
1368	9.12639E-13
1369.2	9.39643E-13
1370.4	8.62912E-13
1371.6	9.19761E-13
1372.8	1.05944E-12
1374	9.56749E-13
1375.2	8.84513E-13
1376.4	8.12644E-13
1377.6	9.2043E-13
1378.8	9.43032E-13
1379.8	8.49033E-13
1381	9.25008E-13
1382.2	1.0014E-12
1383.4	8.48548E-13
1384.6	8.75507E-13
1385.8	9.07041E-13
1387	9.0442E-13
1388.2	9.99665E-13
1389.4	1.09032E-12
1390.6	1.29622E-12
1391.6	1.68247E-12
1392.8	2.07925E-12
1394	2.13612E-12
1395.2	1.9226E-12
1396.4	1.46566E-12
1397.6	1.18077E-12
1398.8	1.22261E-12
1400	1.3825E-12
1401.2	1.67265E-12
1402.4	1.68216E-12
1403.4	1.63947E-12
1404.6	1.59441E-12
1405.8	1.20439E-12
1407	1.01913E-12
1408.2	9.49067E-13
1409.4	1.02941E-12
1410.6	8.81936E-13
1411.8	8.53953E-13
1413	9.29326E-13
1414	9.51307E-13
1415.2	9.44754E-13
1416.4	9.84797E-13
1417.6	9.75307E-13
1418.8	9.72225E-13
1420	8.96415E-13
1421.2	8.84563E-13
1422.4	9.80692E-13
1423.6	9.36928E-13
1424.8	9.5015E-13
1425.8	9.32308E-13
1427	8.78788E-13
1428.2	9.03717E-13
1429.4	9.19502E-13
1430.6	9.55843E-13
1431.8	9.23207E-13
1433	1.01248E-12
1434.2	9.06365E-13
1435.4	8.70346E-13
1436.6	8.87876E-13
1437.6	8.87618E-13
1438.8	8.82297E-13
1440	8.88636E-13
1441.2	8.53384E-13
1442.4	8.93587E-13
1443.6	9.21962E-13
1444.8	9.60769E-13
1446	9.30106E-13
1447.2	9.35174E-13
1448.4	9.22613E-13
1449.4	9.29269E-13
1450.6	1.00981E-12
1451.8	9.41171E-13
1453	8.70299E-13
1454.2	8.72508E-13
1455.4	9.37174E-13
1456.6	9.38256E-13
1457.8	1.00571E-12
1459	9.62709E-13
1460.2	9.25386E-13
1461.2	9.39835E-13
1462.4	9.66968E-13
1463.6	9.00321E-13
1464.8	9.372E-13
1466	1.01371E-12
1467.2	9.72313E-13
1468.4	1.00487E-12
1469.6	1.05197E-12
1470.8	1.01077E-12
1472	9.44806E-13
1473	9.73295E-13
1474.2	1.02399E-12
1475.4	9.86722E-13
1476.6	1.00949E-12
1477.8	1.01833E-12
1479	9.53122E-13
1480.2	9.97761E-13
1481.4	1.05975E-12
1482.6	9.6795E-13
1483.8	9.91936E-13
1484.8	1.06373E-12
1486	1.03279E-12
1487.2	1.11161E-12
1488.4	1.03369E-12
1489.6	1.0774E-12
1490.8	9.94172E-13
1492	1.0047E-12
1493.2	1.01757E-12
1494.4	1.06986E-12
1495.6	1.06772E-12
1496.6	1.04739E-12
1497.8	1.06929E-12
1499	1.07546E-12
1500.2	1.10093E-12
1501.4	1.09972E-12
1502.6	1.10602E-12
1503.8	9.91758E-13
1505	1.00514E-12
1506.2	9.79063E-13
1507.4	9.95383E-13
1508.4	9.67127E-13
1509.6	9.46954E-13
1510.8	9.88625E-13
1512	1.02225E-12
1513.2	9.46853E-13
1514.4	8.68577E-13
1515.6	8.76169E-13
1516.8	8.68967E-13
1518	9.5552E-13
1519	1.06266E-12
1520.2	1.00171E-12
1521.4	9.81354E-13
1522.6	1.00745E-12
1523.8	1.03572E-12
1525	1.13991E-12
1526.2	1.02939E-12
1527.4	9.72506E-13
1528.6	1.07433E-12
1529.8	1.1369E-12
1530.8	1.06868E-12
1532	1.04052E-12
1533.2	1.01796E-12
1534.4	1.07649E-12
1535.6	9.9817E-13
1536.8	9.9817E-13
1538	9.9817E-13
1539.2	9.9817E-13
1540.4	9.9817E-13
1541.6	9.9817E-13
1542.6	9.9817E-13
1543.8	9.9817E-13
1545	9.9817E-13
1546.2	1.10618E-12
1547.4	1.30618E-12
1548.6	1.39169E-12
1549.8	1.39048E-12
1551	1.30378E-12
1552.2	1.20886E-12
1553.4	9.99978E-13
1554.4	9.9817E-13
1555.6	9.9817E-13
1556.8	9.9817E-13
1558	9.9817E-13
1559.2	9.9817E-13
1560.4	9.9817E-13
1561.6	9.9817E-13
1562.8	9.9817E-13
1564	9.9817E-13
1565.2	1.09555E-12
1566.2	1.11448E-12
1567.4	1.10042E-12
1568.6	1.05556E-12
1569.8	1.06059E-12
1571	1.03663E-12
1572.2	9.55338E-13
1573.4	1.01905E-12
1574.6	9.9002E-13
1575.8	1.04056E-12
1577	1.07062E-12
1578	1.11464E-12
1579.2	1.08724E-12
1580.4	1.14798E-12
1581.6	1.09091E-12
1582.8	1.04547E-12
1584	1.04722E-12
1585.2	1.05627E-12
1586.4	1.07915E-12
1587.6	1.0126E-12
1588.8	1.03638E-12
1589.8	1.02088E-12
1591	1.0153E-12
1592.2	1.02132E-12
1593.4	1.01785E-12
1594.6	1.06873E-12
1595.8	1.07284E-12
1597	1.03841E-12
1598.2	9.86193E-13
1599.4	1.01719E-12
1600.6	1.02395E-12
1601.6	9.55565E-13
1602.8	1.04521E-12
1604	1.04419E-12
1605.2	9.94545E-13
1606.4	9.69333E-13
1607.6	1.01113E-12
1608.8	1.10905E-12
1610	1.02328E-12
1611.2	9.7573E-13
1612.4	9.50026E-13
1613.4	9.72503E-13
1614.6	1.04077E-12
1615.8	9.97848E-13
1617	9.11633E-13
1618.2	9.28159E-13
1619.4	1.01496E-12
1620.6	1.07238E-12
1621.8	1.04516E-12
1623	9.98468E-13
1624	1.01492E-12
1625.2	9.84764E-13
1626.4	9.75449E-13
1627.6	1.00351E-12
1628.8	9.44887E-13
1630	9.60191E-13
1631.2	9.97974E-13
1632.4	1.01441E-12
1633.6	1.04529E-12
1634.8	1.10493E-12
1635.8	1.12419E-12
1637	1.12318E-12
1638.2	1.35182E-12
1639.4	1.4132E-12
1640.6	1.47788E-12
1641.8	1.46537E-12
1643	1.30475E-12
1644.2	1.15098E-12
1645.4	1.02798E-12
1646.6	1.01166E-12
1647.6	1.01365E-12
1648.8	1.03181E-12
1650	9.11072E-13
1651.2	9.24988E-13
1652.4	1.03554E-12
1653.6	1.00003E-12
1654.8	1.03387E-12
1656	1.10734E-12
1657.2	1.16388E-12
1658.4	1.16809E-12
1659.4	1.13146E-12
1660.6	1.074E-12
1661.8	1.05635E-12
1663	1.05071E-12
1664.2	1.00919E-12
1665.4	1.04013E-12
1666.6	1.02386E-12
1667.8	9.89013E-13
1669	9.89052E-13
1670.2	9.34684E-13
1671.2	9.63865E-13
1672.4	1.00904E-12
1673.6	1.02287E-12
1674.8	1.03555E-12
1676	9.98513E-13
1677.2	9.97458E-13
1678.4	1.01254E-12
1679.6	9.32813E-13
1680.8	9.55038E-13
1682	9.96133E-13
1683	9.86946E-13
1684.2	9.6839E-13
1685.4	9.41081E-13
1686.6	9.08205E-13
1687.8	9.69576E-13
1689	1.01523E-12
1690.2	9.75972E-13
1691.4	9.91321E-13
1692.6	1.0195E-12
1693.8	1.03688E-12
1694.8	1.08486E-12
1696	1.02678E-12
1697.2	9.64768E-13
1698.4	9.98248E-13
1699.6	1.02659E-12
1700.8	1.0016E-12
1702	1.02007E-12
1703.2	9.5363E-13
1704.4	9.49189E-13
1705.6	9.77394E-13
1706.6	9.7964E-13
1707.8	9.75538E-13
1709	9.26667E-13
1710.2	9.38656E-13
1711.4	9.93959E-13
1712.6	1.01581E-12
1713.8	9.9752E-13
1715	1.02108E-12
1716.2	1.02759E-12
1717.4	9.88601E-13
1718.4	1.03748E-12
1719.6	1.08516E-12
1720.8	1.05106E-12
1722	1.00517E-12
1723.2	9.57128E-13
1724.4	9.642E-13
1725.6	1.00932E-12
1726.8	9.94302E-13
1728	9.90575E-13
1729	1.00776E-12
1730.2	9.80398E-13
1731.4	9.83083E-13
1732.6	9.48304E-13
1733.8	9.41191E-13
1735	9.66282E-13
1736.2	1.015E-12
1737.4	1.01598E-12
1738.6	9.95647E-13
1739.8	1.0212E-12
1740.8	1.0026E-12
1742	9.65879E-13
1743.2	9.63125E-13
1744.4	9.83873E-13
1745.6	9.95894E-13
1746.8	1.0385E-12
1748	1.07355E-12
1749.2	1.04427E-12
1750.4	1.03642E-12
1751.6	1.0384E-12
1752.6	1.01001E-12
1753.8	1.0447E-12
1755	1.06166E-12
1756.2	1.04915E-12
1757.4	1.06294E-12
1758.6	1.05553E-12
1759.8	1.00086E-12
1761	9.66449E-13
1762.2	1.03227E-12
1763.4	1.06995E-12
1764.4	1.05342E-12
1765.6	1.0157E-12
1766.8	1.04786E-12
1768	1.05529E-12
1769.2	1.03298E-12
1770.4	1.02627E-12
1771.6	1.00807E-12
1772.8	1.02658E-12
1774	1.04923E-12
1775.2	1.05999E-12
1776.2	1.06455E-12
1777.4	1.05217E-12
1778.6	1.03057E-12
1779.8	1.02807E-12
1781	1.00206E-12
1782.2	1.0336E-12
1783.4	1.04059E-12
1784.6	1.06112E-12
1785.8	1.06513E-12
1787	1.05323E-12
1788	9.94795E-13
1789.2	9.44784E-13
1790.4	8.49836E-13
1791.6	7.22012E-13
1792.8	6.72594E-13
1794	7.47026E-13
1795.2	8.43326E-13
1796.4	9.14723E-13
1797.6	9.70181E-13
1798.8	1.00274E-12
1799.8	1.00073E-12
1801	1.03123E-12
1802.2	1.03496E-12
1803.4	1.03018E-12
1804.6	1.01137E-12
1805.8	1.04689E-12
1807	1.05406E-12
1808.2	1.06976E-12
1809.4	1.05488E-12
1810.6	1.04697E-12
1811.6	1.01433E-12
1812.8	9.9849E-13
1814	1.00225E-12
1815.2	1.02419E-12
1816.4	1.02807E-12
1817.6	1.07289E-12
1818.8	1.05163E-12
1820	1.03175E-12
1821.2	1.0009E-12
1822.4	9.98883E-13
1823.4	1.00499E-12
1824.6	1.02109E-12
1825.8	1.02715E-12
1827	1.0397E-12
1828.2	1.03525E-12
1829.4	1.01119E-12
1830.6	9.80013E-13
1831.8	9.77233E-13
1833	9.52822E-13
1834	9.47185E-13
1835.2	9.52366E-13
1836.4	9.68779E-13
1837.6	9.66846E-13
1838.8	9.69283E-13
1840	9.76488E-13
1841.2	9.63487E-13
1842.4	9.81242E-13
1843.6	9.89311E-13
1844.8	9.65798E-13
1845.8	9.69419E-13
1847	9.76322E-13
1848.2	9.90418E-13
1849.4	9.74468E-13
1850.6	1.00433E-12
1851.8	1.0202E-12
1853	1.03757E-12
1854.2	1.03301E-12
1855.4	1.03278E-12
1856.6	1.02417E-12
1857.6	1.04041E-12
1858.8	1.04691E-12
1860	1.04474E-12
1861.2	1.03365E-12
1862.4	1.04524E-12
1863.6	1.01792E-12
1864.8	1.02661E-12
1866	1.002E-12
1867.2	9.72667E-13
1868.4	9.36698E-13
1869.4	9.66732E-13
1870.6	9.57582E-13
1871.8	9.82891E-13
1873	9.78758E-13
1874.2	9.78079E-13
1875.4	9.62841E-13
1876.6	9.68773E-13
1877.8	9.44853E-13
1879	9.43534E-13
1880.2	9.443E-13
1881.2	9.7222E-13
1882.4	9.66139E-13
1883.6	9.80605E-13
1884.8	9.54704E-13
1886	9.62798E-13
1887.2	9.52978E-13
1888.4	9.74559E-13
1889.6	9.577E-13
1890.8	9.7541E-13
1892	9.81221E-13
1893	9.97869E-13
1894.2	9.88616E-13
1895.4	9.92177E-13
1896.6	9.88983E-13
1897.8	9.84579E-13
1899	9.69115E-13
1900.2	9.76354E-13
1901.4	9.67361E-13
1902.6	9.62216E-13
1903.8	9.38903E-13
1904.8	9.38533E-13
1906	9.33681E-13
1907.2	9.61055E-13
1908.4	9.64219E-13
1909.6	9.74037E-13
1910.8	9.62147E-13
1912	9.68748E-13
1913.2	9.71452E-13
1914.4	9.78726E-13
1915.6	9.76333E-13
1916.6	9.91842E-13
1917.8	9.70464E-13
1919	9.61985E-13
1920.2	9.41443E-13
1921.4	9.45473E-13
1922.6	9.65137E-13
1923.8	9.72808E-13
1925	9.59173E-13
1926.2	9.75146E-13
1927.4	9.989E-13
1928.4	1.00313E-12
1929.6	1.00522E-12
1930.8	9.94969E-13
1932	9.78599E-13
1933.2	9.80933E-13
1934.4	9.53278E-13
1935.6	9.62772E-13
1936.8	9.4014E-13
1938	9.4633E-13
1939	9.38918E-13
1940.2	9.55045E-13
1941.4	9.46838E-13
1942.6	9.44873E-13
1943.8	9.3869E-13
1945	9.28488E-13
1946.2	9.31314E-13
1947.4	9.29449E-13
1948.6	9.34481E-13
1949.8	9.35625E-13
1950.8	9.39965E-13
1952	9.56619E-13
1953.2	9.6042E-13
1954.4	9.75227E-13
1955.6	9.7776E-13
1956.8	9.83491E-13
1958	9.6336E-13
1959.2	9.68341E-13
1960.4	9.70542E-13
1961.6	9.68406E-13
1962.6	9.65174E-13
1963.8	9.68298E-13
1965	9.63968E-13
1966.2	9.44021E-13
1967.4	9.26899E-13
1968.6	9.18512E-13
1969.8	9.26714E-13
1971	9.25543E-13
1972.2	9.11254E-13
1973.4	9.14017E-13
1974.4	9.16418E-13
1975.6	9.30206E-13
1976.8	9.34238E-13
1978	9.44079E-13
1979.2	9.40519E-13
1980.4	9.44102E-13
1981.6	9.4823E-13
1982.8	9.70961E-13
2000.4	9.13955E-13
2002.2	9.12792E-13
2004.2	8.98453E-13
2006	8.99412E-13
2009.8	8.96805E-13
2011.6	8.57791E-13
2013.6	8.44639E-13
2015.4	8.61826E-13
2017.2	8.65677E-13
2019.2	8.86463E-13
2021	8.81888E-13
2022.8	8.49755E-13
2024.8	8.35729E-13
2026.6	8.34748E-13
2028.4	8.74895E-13
2030.4	8.43748E-13
2032.2	8.21077E-13
2034	8.38435E-13
2036	8.54795E-13
2037.8	8.80251E-13
2039.6	9.15721E-13
2041.6	9.09944E-13
2043.4	9.02527E-13
2045.4	9.36479E-13
2047.2	9.35833E-13
2049	9.28074E-13
2051	9.73275E-13
2052.8	9.9049E-13
2054.6	9.57173E-13
2056.6	9.36947E-13
2058.4	9.45838E-13
2060.2	9.79724E-13
2062.2	1.01593E-12
2064	1.01477E-12
2065.8	9.91138E-13
2067.8	9.62731E-13
2069.6	9.55425E-13
2071.4	9.33959E-13
2073.4	9.58248E-13
2075.2	9.56769E-13
2077	9.22557E-13
2079	8.88737E-13
2080.8	8.75797E-13
2082.6	8.94754E-13
2084.6	8.64607E-13
2086.4	8.26297E-13
2088.4	8.10385E-13
2090.2	7.73884E-13
2092	7.73298E-13
2094	8.42214E-13
2095.8	8.98985E-13
2097.6	8.85265E-13
2099.6	8.62945E-13
2101.4	8.65043E-13
2103.2	8.85618E-13
2105.2	9.4371E-13
2107	9.76689E-13
2108.8	1.02178E-12
2110.8	1.06991E-12
2112.6	1.09781E-12
2114.4	1.081E-12
2116.4	1.09718E-12
2118.2	1.13125E-12
2120	1.17085E-12
2122	1.1739E-12
2123.8	1.17835E-12
2125.6	1.2257E-12
2127.6	1.23009E-12
2129.4	1.24606E-12
2131.4	1.26561E-12
2133.2	1.22463E-12
2135	1.19139E-12
2137	1.19107E-12
2138.8	1.18667E-12
2140.6	1.20087E-12
2142.6	1.19154E-12
2144.4	1.1552E-12
2146.2	1.14016E-12
2148.2	1.14718E-12
2150	1.14063E-12
2151.8	1.12116E-12
2153.8	1.10445E-12
2155.6	1.1096E-12
2157.4	1.15157E-12
2159.4	1.19305E-12
2161.2	1.1713E-12
2163	1.14974E-12
2165	1.13496E-12
2166.8	1.15267E-12
2168.6	1.15751E-12
2170.6	1.16262E-12
2172.4	1.17259E-12
2174.4	1.14791E-12
2176.2	1.13235E-12
2178	1.12552E-12
2180	1.10862E-12
2181.8	1.11089E-12
2183.6	1.10001E-12
2185.6	1.10046E-12
2187.4	1.08749E-12
2189.2	1.07684E-12
2191.2	1.06369E-12
2193	1.0736E-12
2194.8	1.05766E-12
2196.8	1.02277E-12
2198.6	9.66974E-13
2200.4	9.93856E-13
2202.4	1.17912E-12
2204.2	7.63492E-13
2206	1.98017E-12
2208	1.87761E-12
2209.8	7.84001E-13
2211.8	1.35571E-12
2213.6	1.69101E-12
2215.4	8.94064E-13
2217.4	6.83924E-13
2219.2	1.28727E-12
2221	1.595E-12
2223	1.18164E-12
2224.8	1.3626E-12
2226.6	1.27229E-12
2228.6	1.1716E-12
2230.4	1.68177E-12
2232.2	1.03275E-12
2234.2	1.59741E-12
2236	1.93533E-12
2237.8	1.61198E-12
2239.8	1.0536E-12
2241.6	1.35795E-12
2243.4	1.47218E-12
2245.4	1.56443E-12
2247.2	1.48832E-12
2249	1.32019E-12
2251	1.87529E-12
2252.8	2.1044E-12
2254.8	2.50402E-12
2256.6	1.94908E-12
2258.4	1.74584E-12
2260.4	2.74753E-12
2262.2	2.6042E-12
2264	1.99596E-12
2266	1.70238E-12
2267.8	2.02913E-12
2269.6	2.25953E-12
2271.6	2.07832E-12
2273.4	1.32207E-12
2275.2	1.7182E-12
2277.2	2.37217E-12
2279	2.00565E-12
2280.8	1.81554E-12
2282.8	2.0415E-12
2284.6	1.01453E-12
2286.4	1.50555E-12
2288.4	2.00272E-12
2290.2	1.35527E-12
2292	1.32621E-12
2294	1.843E-12
2295.8	1.85653E-12
2297.8	1.80615E-12
2299.6	2.40276E-12
2301.4	2.63449E-12
2303.4	2.19241E-12
2305.2	1.59877E-12
2307	1.40037E-12
2309	1.14071E-12
2310.8	1.62048E-12
2312.6	1.27476E-12
2314.6	1.5249E-12
2316.4	1.77675E-12
2318.2	1.69029E-12
2320.2	2.15078E-12
2322	1.70858E-12
2323.8	1.55038E-12
2325.8	2.00728E-12
2327.6	2.67225E-12
2329.4	2.65617E-12
2331.4	2.5857E-12
2333.2	3.08476E-12
2335	2.60665E-12
2337	2.35459E-12
2338.8	3.19893E-12
2340.8	3.45868E-12
2342.6	3.36647E-12
2344.4	3.77122E-12
2346.4	3.78176E-12
2348.2	3.19833E-12
2350	3.43322E-12
2352	3.30012E-12
2353.8	2.27098E-12
2355.6	2.55458E-12
2357.6	2.77531E-12
2359.4	3.34224E-12
2361.2	4.07527E-12
2363.2	3.61847E-12
2365	3.68273E-12
2366.8	3.58797E-12
2368.8	3.72758E-12
2370.6	3.33887E-12
2372.4	2.75032E-12
2374.4	2.54636E-12
2376.2	2.67151E-12
2378	3.81647E-12
2380	4.67251E-12
2381.8	5.19984E-12
2383.8	5.03395E-12
2385.6	4.92095E-12
2387.4	3.67204E-12
2389.4	3.12573E-12
2391.2	2.98358E-12
2393	3.6531E-12
2395	4.30538E-12
2396.8	3.98675E-12
2398.6	4.13003E-12
2400.6	4.17456E-12
2402.4	4.08128E-12
2404.2	4.29916E-12
2406.2	4.14443E-12
2408	4.63579E-12
2409.8	5.45494E-12
2411.8	4.32932E-12
2413.6	3.9357E-12
2415.4	3.26439E-12
2417.4	2.03246E-12
2419.2	2.14112E-12
2421	2.51492E-12
2423	2.62471E-12
2424.8	2.73057E-12
2426.8	2.9535E-12
2428.6	3.0466E-12
2430.4	3.23207E-12
2432.4	3.15713E-12
2434.2	2.88647E-12
2436	3.41775E-12
2438	3.1553E-12
2439.8	3.23011E-12
2441.6	2.9724E-12
2443.6	2.64196E-12
2445.4	3.09213E-12
2447.2	3.34754E-12
2449.2	3.33975E-12
2451	3.01361E-12
2452.8	2.86159E-12
2454.8	2.79991E-12
2456.6	3.02806E-12
2458.4	3.1164E-12
2460.4	3.16483E-12
2462.2	3.28296E-12
2464	3.25406E-12
2466	3.38158E-12
2467.8	3.604E-12
2469.8	3.35021E-12
2471.6	3.4478E-12
2473.4	3.05578E-12
2475.4	3.34599E-12
2477.2	3.57193E-12
2479	3.8363E-12
2481	4.31773E-12
2482.8	3.68428E-12
2484.6	3.18197E-12
2486.6	3.42049E-12
2488.4	3.41389E-12
2490.2	3.35357E-12
2492.2	4.05702E-12
2494	3.46057E-12
2495.8	2.87047E-12
2497.8	3.10985E-12
2499.6	2.80183E-12
2501.4	2.86716E-12
2503.4	2.77437E-12
2505.2	3.53918E-12
2507.2	3.98048E-12
2509	3.64824E-12
2510.8	3.04096E-12
2512.8	3.23989E-12
2514.6	3.59581E-12
2516.4	3.75692E-12
2518.4	3.3233E-12
2520.2	3.54408E-12
2522	3.9488E-12
2524	4.36788E-12
2525.8	4.86817E-12
2527.6	4.64263E-12
2529.6	5.0522E-12
2531.4	5.09191E-12
2533.2	4.48232E-12
2535.2	4.09997E-12
2537	4.89578E-12
2538.8	5.20247E-12
2540.8	4.85402E-12
2542.6	4.23839E-12
2544.4	4.10843E-12
2546.4	4.15055E-12
2548.2	4.39452E-12
2550.2	4.43696E-12
2552	4.00946E-12
2553.8	3.12022E-12
2555.8	2.89518E-12
2557.6	3.01101E-12
2559.4	3.10727E-12
2561.4	3.26268E-12
2563.2	3.02487E-12
2565	3.33089E-12
2567	3.24735E-12
2568.8	3.03668E-12
2570.6	3.3346E-12
2572.6	3.81514E-12
2574.4	3.572E-12
2576.2	3.20255E-12
2578.2	3.02208E-12
2580	2.8263E-12
2581.8	3.15557E-12
2583.8	3.93412E-12
2585.6	4.27414E-12
2587.4	3.78382E-12
2589.4	3.37346E-12
2591.2	3.33861E-12
2593.2	3.51123E-12
2595	3.83371E-12
2596.8	4.17611E-12
2598.8	4.47458E-12
2600.6	4.54619E-12
2602.4	3.98884E-12
2604.4	4.09896E-12
2606.2	4.70318E-12
2608	4.88164E-12
2610	5.26003E-12
2611.8	5.28214E-12
2613.6	4.59547E-12
2615.6	5.51437E-12
2617.4	4.60753E-12
2619.2	4.53528E-12
2621.2	4.62204E-12
2623	4.83138E-12
2624.8	4.87285E-12
2626.8	5.14332E-12
2628.6	5.39006E-12
2630.4	5.44759E-12
2632.4	5.16953E-12
2634.2	3.7507E-12
2636.2	2.85965E-12
2638	2.7793E-12
2639.8	2.81114E-12
2641.8	2.56457E-12
2643.6	2.62737E-12
2645.4	2.3675E-12
2647.4	2.29315E-12
2649.2	2.23835E-12
2651	2.35227E-12
2653	2.54788E-12
2654.8	2.70306E-12
2656.6	2.6807E-12
2658.6	2.59593E-12
2660.4	2.76323E-12
2662.2	3.24475E-12
2664.2	3.65094E-12
2666	3.29555E-12
2667.8	3.07057E-12
2669.8	3.13107E-12
2671.6	3.41796E-12
2673.4	3.03232E-12
2675.4	2.73463E-12
2677.2	2.83888E-12
2679.2	3.16867E-12
2681	3.30395E-12
2682.8	2.89449E-12
2684.8	2.86188E-12
2686.6	3.31698E-12
2688.4	3.32284E-12
2690.4	3.184E-12
2692.2	3.31654E-12
2694	3.23589E-12
2696	3.24709E-12
2697.8	3.57256E-12
2699.6	3.21057E-12
2701.6	3.33703E-12
2703.4	3.64846E-12
2705.2	3.83609E-12
2707.2	3.61548E-12
2709	3.64601E-12
2710.8	3.65357E-12
2712.8	4.10209E-12
2714.6	4.00118E-12
2716.4	3.73306E-12
2718.4	3.57928E-12
2720.2	3.63701E-12
2722.2	3.92238E-12
2724	3.72665E-12
2725.8	3.97285E-12
2727.8	4.45025E-12
2729.6	4.4735E-12
2731.4	4.40546E-12
2733.4	4.5635E-12
2735.2	4.70552E-12
2737	5.34218E-12
2739	5.49364E-12
2740.8	5.33041E-12
2742.6	5.04824E-12
2744.6	5.43978E-12
2746.4	5.58918E-12
2748.2	5.39536E-12
2750.2	5.10638E-12
2752	5.36173E-12
2753.8	5.20772E-12
2755.8	4.9216E-12
2757.6	4.79671E-12
2759.4	4.73519E-12
2761.4	4.74743E-12
2763.2	4.5671E-12
2765.2	4.98128E-12
2767	4.47538E-12
2768.8	4.75844E-12
2770.8	4.19569E-12
2772.6	4.05734E-12
2774.4	4.05504E-12
2776.4	3.85333E-12
2778.2	3.97454E-12
2780	4.36374E-12
2782	4.38714E-12
2783.8	4.07174E-12
2785.6	4.10051E-12
2787.6	4.50515E-12
2789.4	4.98316E-12
2791.1	4.40954E-12
2791.2	4.40954E-12
2792.9	4.40954E-12
2793.2	4.40954E-12
2794.6	4.52961E-12
2795	4.52961E-12
2796.4	1.03155E-11
2796.8	4.52961E-12
2798.1	4.52961E-12
2798.8	4.52961E-12
2799.9	4.52961E-12
2800.6	4.52961E-12
2801.6	4.52961E-12
2802.4	4.52961E-12
2803.4	8.24182E-12
2804.4	4.52961E-12
2805.1	4.52961E-12
2806.2	4.40954E-12
2806.9	4.40954E-12
2808.2	4.40954E-12
2808.6	4.40954E-12
2810	3.8673E-12
2811.8	3.70634E-12
2813.8	3.5542E-12
2815.6	3.48092E-12
2817.4	3.20864E-12
2819.4	3.89094E-12
2821.2	3.88346E-12
2823	3.86263E-12
2825	3.82709E-12
2826.8	3.80713E-12
2828.6	3.79457E-12
2830.6	3.76762E-12
2832.4	3.65362E-12
2834.2	3.50308E-12
2836.2	3.39012E-12
2838	3.37151E-12
2839.8	3.40678E-12
2841.8	3.46554E-12
2843.6	3.51645E-12
2845.4	3.54585E-12
2847.4	3.54558E-12
2849.2	3.54032E-12
2851.2	3.54665E-12
2853	3.54649E-12
2854.8	3.5509E-12
2856.8	3.55303E-12
2858.6	3.55327E-12
2860.4	3.53808E-12
2862.4	3.54325E-12
2864.2	3.55046E-12
2866	3.52377E-12
2868	3.4922E-12
2869.8	3.50254E-12
2871.6	3.60864E-12
2873.6	3.74916E-12
2875.4	3.85104E-12
2877.2	3.87467E-12
2879.2	3.84062E-12
2881	3.78553E-12
2882.8	3.81463E-12
2884.8	3.42996E-12
2886.6	3.48302E-12
2888.4	3.51824E-12
2890.4	3.54047E-12
2892.2	3.34381E-12
2894.2	3.24818E-12
2896	3.31403E-12
2897.8	3.17092E-12
2899.8	3.31719E-12
2901.6	3.11913E-12
2903.4	2.83738E-12
2905.4	2.82819E-12
2907.2	3.03761E-12
2909	3.24741E-12
2911	3.31626E-12
2912.8	3.13782E-12
2914.6	3.3392E-12
2916.6	3.35833E-12
2918.4	3.35572E-12
2920.2	3.23498E-12
2922.2	3.61973E-12
2924	3.98927E-12
2925.8	4.21344E-12
2927.8	4.32508E-12
2929.6	4.22867E-12
2931.4	3.94805E-12
2933.4	3.90053E-12
2935.2	4.01998E-12
2937.2	3.84091E-12
2939	4.04042E-12
2940.8	4.0675E-12
2942.8	4.00248E-12
2944.6	4.02923E-12
2946.4	4.06166E-12
2948.4	4.05148E-12
2950.2	4.08449E-12
2952	4.03268E-12
2954	4.05788E-12
2955.8	3.8047E-12
2957.6	3.91813E-12
2959.6	3.99604E-12
2961.4	4.12477E-12
2963.2	4.09097E-12
2965.2	3.94117E-12
2967	3.97048E-12
2968.8	3.77194E-12
2970.8	3.98308E-12
2972.6	3.88642E-12
2974.4	3.91133E-12
2976.4	3.86672E-12
2978.2	3.67445E-12
2980.2	3.69659E-12
2982	4.14454E-12
2983.8	4.24138E-12
2985.8	3.96364E-12
2987.6	3.61076E-12
2989.4	3.27654E-12
2991.4	3.2697E-12
2993.2	3.26359E-12
2995	3.24769E-12
2997	3.37882E-12
2998.8	3.83018E-12
3000.6	3.9168E-12
3002.6	3.80495E-12
3004.4	3.60659E-12
3006.2	3.08331E-12
3008.2	2.87817E-12
3010	2.70217E-12
3011.8	2.82461E-12
3013.8	3.17965E-12
3015.6	3.4253E-12
3017.4	3.4914E-12
3019.4	3.38769E-12
3021.2	3.49761E-12
3023.2	3.50316E-12
3025	3.60972E-12
3026.8	3.56266E-12
3028.8	3.52166E-12
3030.6	3.34421E-12
3032.4	3.31562E-12
3034.4	3.49242E-12
3036.2	3.50187E-12
3038	3.57414E-12
3040	3.53094E-12
3041.8	3.45281E-12
3043.6	3.36446E-12
3045.6	3.29962E-12
3047.4	3.24515E-12
3049.2	3.28461E-12
3051.2	3.40457E-12
3053	3.55426E-12
3054.8	3.65188E-12
3056.8	3.49832E-12
3058.6	3.42684E-12
3060.4	3.39285E-12
3062.4	3.50556E-12
3064.2	3.70073E-12
3066.2	3.65155E-12
3068	3.72197E-12
3069.8	3.66084E-12
3071.8	3.63334E-12
3073.6	3.50821E-12
3075.4	3.40665E-12
3077.4	3.33679E-12
3079.2	3.53098E-12
3081	3.49035E-12
3083	3.32755E-12
3084.8	3.20052E-12
3086.6	3.05955E-12
3088.6	3.25009E-12
3090.4	3.63355E-12
3092.2	4.06282E-12
3094.2	4.08636E-12
3096	4.00468E-12
3097.8	3.95802E-12
3099.8	3.8974E-12
3101.6	3.83036E-12
3103.4	3.69673E-12
3105.4	3.61228E-12
3107.2	3.63704E-12
3109.2	3.71876E-12
3111	3.61019E-12
3112.8	3.29091E-12
3114.8	3.38208E-12
3116.6	3.34827E-12
3118.4	3.37279E-12
3120.4	3.19137E-12
3122.2	3.10773E-12
3124	3.15299E-12
3126	3.18508E-12
3127.8	3.0239E-12
3129.6	3.01656E-12
3131.6	2.94169E-12
3133.4	2.99709E-12
3135.2	2.92403E-12
3137.2	2.76141E-12
3139	2.75718E-12
3140.8	2.63686E-12
3142.8	2.6384E-12
3144.6	2.60687E-12
3146.4	2.45232E-12
3148.4	2.67357E-12
3150.2	3.07876E-12
3152.2	3.55232E-12
3154	3.68968E-12
3155.8	3.41799E-12
3157.8	3.59396E-12
3159.6	3.48531E-12
3161.4	3.33146E-12
3163.4	3.11582E-12
3165.2	3.01763E-12
3167	2.95268E-12
3169	3.14944E-12
3170.8	3.14071E-12
3172.6	3.12678E-12
3174.6	3.2101E-12
3176.4	3.51271E-12
3178.2	3.84318E-12
3180.2	3.87389E-12
3182	3.99503E-12
3183.8	3.70706E-12
3185.8	3.41317E-12
3187.6	3.49925E-12
3189.4	3.42672E-12
3191.4	3.69234E-12
3193.2	3.51267E-12
3195.2	3.44741E-12
3197	3.16548E-12
3198.8	3.06686E-12
3200.8	3.19572E-12
3202.6	3.30722E-12
3204.4	3.41129E-12
3206.4	3.35222E-12
3208.2	3.17138E-12
3210	3.0603E-12
3212	2.953E-12
3213.8	2.94107E-12
3215.6	3.10753E-12
3217.6	3.13315E-12
3219.4	2.93761E-12
3221.2	2.9625E-12
3223.2	3.06655E-12
3225	3.33302E-12
3226.8	3.53215E-12
3228.8	3.54287E-12
3230.6	3.53569E-12
3232.4	3.42307E-12
3234.4	3.34011E-12
3236.2	2.96748E-12
3238.2	2.9076E-12
3240	2.76076E-12
3241.8	3.00571E-12
3243.8	3.24183E-12
3245.6	3.38679E-12
3247.4	3.34892E-12
3249.4	3.32186E-12
3251.2	3.66955E-12
3253	4.01234E-12
3255	4.56379E-12
3256.8	4.62139E-12
3258.6	4.26769E-12
3260.6	4.28792E-12
3262.4	4.51051E-12
3264.2	4.52696E-12
3266.2	4.6683E-12
3268	5.08446E-12
3269.8	5.4234E-12
3271.8	5.53586E-12
3273.6	4.99691E-12
3275.4	4.63014E-12
3277.4	4.87696E-12
3279.2	4.56563E-12
3281.2	4.31168E-12
3283	4.33724E-12
3284.8	4.40374E-12
3286.8	4.55566E-12
3288.6	4.54219E-12
3290.4	4.51908E-12
3292.4	4.76802E-12
3294.2	4.9563E-12
3296	5.21561E-12
3298	5.21647E-12
3299.8	5.5737E-12
3301.6	2.29989E-12
3303.6	2.07374E-12
3305.6	2E-12
3307.6	2E-12
3309.6	2E-12
3311.6	2E-12
3313.6	2E-12
3315.6	2E-12
3317.6	2E-12
3319.6	2E-12
3321.6	2E-12
3323.6	2E-12
3325.6	2E-12
3327.6	2E-12
3329.6	2E-12
3331.6	2E-12
3333.6	2E-12
3335.6	2E-12
3337.6	2E-12
3339.6	2E-12
3341.6	2E-12
3343.6	2E-12
3345.6	2E-12
3347.6	2E-12
3349.6	2E-12
3351.6	2E-12
3353.6	2E-12
3355.6	2E-12
3357.6	2E-12
3359.6	2E-12
3361.6	2E-12
3363.6	2E-12
3365.6	2E-12
3367.6	2E-12
3369.6	2E-12
3371.6	2E-12
3373.6	2E-12
3375.6	2E-12
3377.6	2E-12
3379.6	2E-12
3381.6	2E-12
3383.6	2E-12
3385.6	2E-12
3387.6	2E-12
3389.6	2E-12
3391.6	2E-12
3393.6	2E-12
3395.6	2E-12
3397.6	2E-12
3399.6	2E-12
3401.6	2E-12
3403.6	2E-12
3405.6	2E-12
3407.6	2E-12
3409.6	2E-12
3411.6	2E-12
3413.6	2E-12
3415.6	2E-12
3417.6	2E-12
3419.6	2E-12
3421.6	2E-12
3423.6	2E-12
3425.6	2E-12
3427.6	2E-12
3429.6	2E-12
3431.6	2E-12
3433.6	2E-12
3435.6	2E-12
3437.6	2E-12
3439.6	2E-12
3441.6	2E-12
3443.6	2E-12
3445.6	2E-12
3447.6	2E-12
3449.6	2E-12
3451.6	2E-12
3453.6	2E-12
3455.6	2E-12
3457.6	2E-12
3459.6	2E-12
3461.6	2E-12
3463.6	2E-12
3465.6	2E-12
3467.6	2E-12
3469.6	2E-12
3471.6	2E-12
3473.6	2E-12
3475.6	2E-12
3477.6	2E-12
3479.6	2E-12
3481.6	2E-12
3483.6	2E-12
3485.6	2E-12
3487.6	2E-12
3489.6	2E-12
3491.6	2E-12
3493.6	2E-12
3495.6	2E-12
3497.6	2E-12
3499.6	2E-12
3501.6	2E-12
3503.6	2E-12
3505.6	2E-12
3507.6	2E-12
3509.6	2E-12
3511.6	2E-12
3513.6	2E-12
3515.6	2E-12
3517.6	2E-12
3519.6	2E-12
3521.6	2E-12
3523.6	2E-12
3525.6	2E-12
3527.6	2E-12
3529.6	2E-12
3531.6	2E-12
3533.6	2E-12
3535.6	2E-12
3537.6	2E-12
3539.6	2E-12
3541.6	2E-12
3543.6	2E-12
3545.6	2E-12
3547.6	2E-12
3550.06	1.927E-12
3551.8	2.079E-12
3553.53	2.471E-12
3555.27	2.158E-12
3557.01	2.644E-12
3558.75	1.925E-12
3560.49	2.301E-12
3562.22	2.546E-12
3563.96	2.463E-12
3565.7	2.225E-12
3567.44	1.851E-12
3569.17	2.967E-12
3570.91	2.325E-12
3572.65	2.646E-12
3574.39	1.891E-12
3576.13	2.652E-12
3577.86	2.395E-12
3579.6	2.473E-12
3581.34	2.502E-12
3583.08	2.667E-12
3584.82	2.547E-12
3586.56	2.376E-12
3588.29	2.313E-12
3590.03	1.817E-12
3591.77	2.605E-12
3593.51	2.237E-12
3595.25	1.919E-12
3596.98	2.277E-12
3598.72	1.944E-12
3600.46	2.2E-12
3602.2	2.194E-12
3603.94	2.206E-12
3605.68	2.501E-12
3607.41	2.567E-12
3609.15	2.602E-12
3610.89	2.391E-12
3612.63	2.196E-12
3614.37	2.016E-12
3616.11	2.533E-12
3617.84	2.522E-12
3619.58	2.546E-12
3621.32	2.692E-12
3623.06	2.279E-12
3624.8	2.501E-12
3626.54	2.209E-12
3628.27	2.479E-12
3630.01	2.225E-12
3631.75	2.28E-12
3633.49	2.249E-12
3635.23	2.736E-12
3636.97	2.291E-12
3638.71	2.207E-12
3640.44	2.4E-12
3642.18	1.957E-12
3643.92	2.156E-12
3645.66	2.641E-12
3647.4	2.327E-12
3649.14	2.288E-12
3650.88	2.333E-12
3652.62	2.283E-12
3654.35	2.191E-12
3656.09	2.243E-12
3657.83	2.152E-12
3659.57	2.266E-12
3661.31	2.226E-12
3663.05	2.336E-12
3664.79	2.389E-12
3666.53	2.194E-12
3668.26	2.381E-12
3670	2.395E-12
3671.74	2.191E-12
3673.48	2.465E-12
3675.22	1.934E-12
3676.96	2.432E-12
3678.7	2.395E-12
3680.44	2.656E-12
3682.18	2.288E-12
3683.92	2.484E-12
3685.65	2.414E-12
3687.39	2.179E-12
3689.13	2.405E-12
3690.87	2.281E-12
3692.61	2.35E-12
3694.35	2.275E-12
3696.09	2.166E-12
3697.83	2.567E-12
3699.57	2.251E-12
3701.31	2.139E-12
3703.05	2.378E-12
3704.78	2.521E-12
3706.52	2.716E-12
3708.26	2.261E-12
3710	2.325E-12
3711.74	2.365E-12
3713.48	2.655E-12
3715.22	2.101E-12
3716.96	2.014E-12
3718.7	2.132E-12
3720.44	2.24E-12
3722.18	2.71E-12
3723.92	2.333E-12
3725.66	2.157E-12
3727.4	2.122E-12
3729.14	2.082E-12
3730.87	2.021E-12
3732.61	2.212E-12
3734.35	2.884E-12
3736.09	2.67E-12
3737.83	2.497E-12
3739.57	2.227E-12
3741.31	2.147E-12
3743.05	2.096E-12
3744.79	2.25E-12
3746.53	2.411E-12
3748.27	2.334E-12
3750.01	3.04E-12
3751.75	2.71E-12
3753.49	2.358E-12
3755.23	2.03E-12
3756.97	2.013E-12
3758.71	2.263E-12
3760.45	2.228E-12
3762.19	2.028E-12
3763.93	2.012E-12
3765.67	2.101E-12
3767.41	2.14E-12
3769.15	2.809E-12
3770.89	3.256E-12
3772.63	2.779E-12
3774.37	2.346E-12
3776.11	2.133E-12
3777.85	2.193E-12
3779.59	2.114E-12
3781.33	1.925E-12
3783.07	1.88E-12
3784.81	2.012E-12
3786.55	1.934E-12
3788.29	2.135E-12
3790.03	2.111E-12
3791.77	2.027E-12
3793.51	2.304E-12
3795.25	2.597E-12
3796.99	3.041E-12
3798.73	3.953E-12
3800.47	2.804E-12
3802.21	2.311E-12
3803.95	2.295E-12
3805.69	2.018E-12
3807.43	2.087E-12
3809.17	1.897E-12
3810.91	1.916E-12
3812.65	1.905E-12
3814.39	1.939E-12
3816.13	1.955E-12
3817.87	1.898E-12
3819.61	1.937E-12
3821.35	2.079E-12
3823.09	1.877E-12
3824.83	2.095E-12
3826.57	2.097E-12
3828.31	2.063E-12
3830.05	2.27E-12
3831.79	2.592E-12
3833.53	2.889E-12
3835.27	4.169E-12
3837.01	3.918E-12
3838.75	2.866E-12
3840.49	2.342E-12
3842.23	2.071E-12
3843.97	2.092E-12
3845.71	1.854E-12
3847.45	1.964E-12
3849.19	1.807E-12
3850.93	1.812E-12
3852.68	1.723E-12
3854.42	1.873E-12
3856.16	2.048E-12
3857.9	1.946E-12
3859.64	1.97E-12
3861.38	1.943E-12
3863.12	1.904E-12
3864.86	1.89E-12
3866.6	1.933E-12
3868.34	1.916E-12
3870.08	1.777E-12
3871.82	1.844E-12
3873.56	1.899E-12
3875.3	1.833E-12
3877.04	1.852E-12
3878.79	2.082E-12
3880.53	1.914E-12
3882.27	2.058E-12
3884.01	2.283E-12
3885.75	2.574E-12
3887.49	3.457E-12
3889.23	5.238E-12
3890.97	4.103E-12
3892.71	2.937E-12
3894.45	2.494E-12
3896.19	2.135E-12
3897.94	2.186E-12
3899.68	2.042E-12
3901.42	2.099E-12
3903.16	1.998E-12
3904.9	1.977E-12
3906.64	2.206E-12
3908.38	1.847E-12
3910.12	1.81E-12
3911.86	1.773E-12
3913.6	1.769E-12
3915.35	1.859E-12
3917.09	1.842E-12
3918.83	1.858E-12
3920.57	1.946E-12
3922.31	1.876E-12
3924.05	1.866E-12
3925.79	1.821E-12
3927.53	1.906E-12
3929.28	1.91E-12
3931.02	2.004E-12
3932.76	2.636E-12
3934.5	4.885E-12
3936.24	2.175E-12
3937.98	1.871E-12
3939.72	1.807E-12
3941.46	1.861E-12
3943.21	1.82E-12
3944.95	1.906E-12
3946.69	1.786E-12
3948.43	1.846E-12
3950.17	1.86E-12
3951.91	1.764E-12
3953.65	1.809E-12
3955.4	1.833E-12
3957.14	1.943E-12
3958.88	1.868E-12
3960.62	1.863E-12
3962.36	2.11E-12
3964.1	2.267E-12
3965.85	2.565E-12
3967.59	3.618E-12
3969.33	6.495E-12
3971.07	5.789E-12
3972.81	3.632E-12
3974.55	2.724E-12
3976.3	2.415E-12
3978.04	2.141E-12
3979.78	1.964E-12
3981.52	1.944E-12
3983.26	1.87E-12
3985	1.859E-12
3986.75	1.837E-12
3988.49	1.784E-12
3990.23	1.81E-12
3991.97	1.789E-12
3993.71	1.72E-12
3995.45	1.834E-12
3997.2	1.882E-12
3998.94	1.836E-12
4000.68	1.776E-12
4002.42	1.882E-12
4004.16	1.821E-12
4005.91	1.896E-12
4007.65	1.901E-12
4009.39	1.867E-12
4011.13	1.813E-12
4012.87	1.857E-12
4014.62	1.86E-12
4016.36	1.813E-12
4018.1	1.874E-12
4019.84	1.775E-12
4021.58	1.872E-12
4023.33	1.887E-12
4025.07	1.894E-12
4026.81	2.193E-12
4028.55	1.941E-12
4030.3	1.881E-12
4032.04	1.828E-12
4033.78	1.865E-12
4035.52	1.849E-12
4037.26	1.861E-12
4039.01	1.764E-12
4040.75	1.803E-12
4042.49	1.837E-12
4044.23	1.853E-12
4045.98	1.895E-12
4047.72	1.833E-12
4049.46	1.779E-12
4051.2	1.819E-12
4052.95	1.859E-12
4054.69	1.825E-12
4056.43	1.823E-12
4058.17	1.918E-12
4059.91	1.821E-12
4061.66	1.828E-12
4063.4	1.926E-12
4065.14	1.858E-12
4066.88	1.835E-12
4068.63	1.835E-12
4070.37	1.781E-12
4072.11	1.86E-12
4073.85	1.785E-12
4075.6	1.778E-12
4077.34	1.892E-12
4079.08	1.912E-12
4080.83	1.857E-12
4082.57	1.76E-12
4084.31	1.816E-12
4086.05	1.84E-12
4087.8	1.828E-12
4089.54	1.856E-12
4091.28	1.881E-12
4093.02	2.026E-12
4094.77	2.117E-12
4096.51	2.377E-12
4098.25	2.872E-12
4100	3.806E-12
4101.74	6.336E-12
4103.48	5.289E-12
4105.22	3.366E-12
4106.97	2.783E-12
4108.71	2.389E-12
4110.45	2.165E-12
4112.2	2.009E-12
4113.94	1.931E-12
4115.68	1.86E-12
4117.42	1.823E-12
4119.17	1.865E-12
4120.91	1.865E-12
4122.65	1.902E-12
4124.4	1.847E-12
4126.14	1.868E-12
4127.88	1.855E-12
4129.63	1.787E-12
4131.37	1.858E-12
4133.11	1.96E-12
4134.85	1.843E-12
4136.6	1.802E-12
4138.34	1.831E-12
4140.08	1.756E-12
4141.83	1.786E-12
4143.57	1.887E-12
4145.31	1.888E-12
4147.06	1.82E-12
4148.8	1.835E-12
4150.54	1.833E-12
4152.29	1.779E-12
4154.03	1.84E-12
4155.77	1.862E-12
4157.52	1.839E-12
4159.26	1.867E-12
4161	1.82E-12
4162.75	1.836E-12
4164.49	1.825E-12
4166.23	1.789E-12
4167.98	1.822E-12
4169.72	1.796E-12
4171.46	1.838E-12
4173.21	1.876E-12
4174.95	1.86E-12
4176.69	1.83E-12
4178.44	1.88E-12
4180.18	1.833E-12
4181.93	1.832E-12
4183.67	1.821E-12
4185.41	1.702E-12
4187.16	1.798E-12
4188.9	1.815E-12
4190.64	1.799E-12
4192.39	1.804E-12
4194.13	1.763E-12
4195.87	1.821E-12
4197.62	1.765E-12
4199.36	1.843E-12
4201.11	1.784E-12
4202.85	1.83E-12
4204.59	1.775E-12
4206.34	1.748E-12
4208.08	1.77E-12
4209.82	1.772E-12
4211.57	1.754E-12
4213.31	1.722E-12
4215.06	1.792E-12
4216.8	1.843E-12
4218.54	1.749E-12
4220.29	1.727E-12
4222.03	1.683E-12
4223.78	1.698E-12
4225.52	1.728E-12
4227.26	1.91E-12
4229.01	1.679E-12
4230.75	1.64E-12
4232.5	1.705E-12
4234.24	1.849E-12
4235.98	1.759E-12
4237.73	1.722E-12
4239.47	1.756E-12
4241.22	1.709E-12
4242.96	1.688E-12
4244.7	1.739E-12
4246.45	1.713E-12
4248.19	1.777E-12
4249.94	1.762E-12
4251.68	1.795E-12
4253.43	1.683E-12
4255.17	1.744E-12
4256.91	1.673E-12
4258.66	1.699E-12
4260.4	1.773E-12
4262.15	1.76E-12
4263.89	1.667E-12
4265.64	1.692E-12
4267.38	1.736E-12
4269.12	1.724E-12
4270.87	1.762E-12
4272.61	1.819E-12
4274.36	1.702E-12
4276.1	1.708E-12
4277.85	1.689E-12
4279.59	1.693E-12
4281.33	1.711E-12
4283.08	1.726E-12
4284.82	1.703E-12
4286.57	1.695E-12
4288.31	1.695E-12
4290.06	1.76E-12
4291.8	1.722E-12
4293.55	1.719E-12
4295.29	1.772E-12
4297.04	1.695E-12
4298.78	1.745E-12
4300.52	1.801E-12
4302.27	1.707E-12
4304.01	1.784E-12
4305.76	1.718E-12
4307.5	1.739E-12
4309.25	1.736E-12
4310.99	1.69E-12
4312.74	1.731E-12
4314.48	1.753E-12
4316.23	1.715E-12
4317.97	1.659E-12
4319.72	1.684E-12
4321.46	1.686E-12
4323.21	1.723E-12
4324.95	1.745E-12
4326.7	1.837E-12
4328.44	1.815E-12
4330.19	1.882E-12
4331.93	1.959E-12
4333.68	2.135E-12
4335.42	2.455E-12
4337.17	3.021E-12
4338.91	4.187E-12
4340.66	7.317E-12
4342.4	5.324E-12
4344.15	3.412E-12
4345.89	2.651E-12
4347.64	2.27E-12
4349.38	2.078E-12
4351.13	1.975E-12
4352.87	2.003E-12
4354.62	1.745E-12
4356.36	1.711E-12
4358.11	1.707E-12
4359.85	1.717E-12
4361.6	1.684E-12
4363.34	1.691E-12
4365.09	1.663E-12
4366.83	1.705E-12
4368.58	1.722E-12
4370.32	1.72E-12
4372.07	1.701E-12
4373.81	1.706E-12
4375.56	1.757E-12
4377.3	1.724E-12
4379.05	1.688E-12
4380.8	1.694E-12
4382.54	1.728E-12
4384.29	1.805E-12
4386.03	1.788E-12
4387.78	1.77E-12
4389.52	1.788E-12
4391.27	1.691E-12
4393.01	1.727E-12
4394.76	1.718E-12
4396.5	1.772E-12
4398.25	1.696E-12
4400	1.747E-12
4401.74	1.726E-12
4403.49	1.746E-12
4405.23	1.788E-12
4406.98	1.67E-12
4408.72	1.757E-12
4410.47	1.717E-12
4412.21	1.744E-12
4413.96	1.755E-12
4415.71	1.827E-12
4417.45	1.849E-12
4419.2	1.768E-12
4420.94	1.719E-12
4422.69	1.75E-12
4424.44	1.723E-12
4426.18	1.706E-12
4427.93	1.752E-12
4429.67	1.708E-12
4431.42	1.761E-12
4433.16	1.76E-12
4434.91	1.733E-12
4436.66	1.731E-12
4438.4	1.731E-12
4440.15	2.384E-12
